
 ------------------------------------------------------------
     resonance       Raman Scattering Plot
 ------------------------------------------------------------
 Excitation wavelength  514.50 nm
 Convolution lineshape is lorentzian  
 FWHM   20.00  1/cm
 ------------------------------------------------------------
 ------------------------------------------------------------
 # of frequencies :     3
 ------------------------------------------------------------
#  freq [ 1/cm]  S-tot [a.u.]S-real [a.u.]  S-imag [a.u.]
 ------------------------------------------------------------
   1  1582.10        1.6775        1.6773        0.0003
   2  3674.09      114.8866      114.8728        0.0138
   3  3785.25       28.8927       28.8893        0.0034
 ------------------------------------------------------------
  1524.42    0.5942E-04    0.5941E-04    0.9592E-08
  1526.75    0.6428E-04    0.6427E-04    0.1038E-07
  1529.08    0.6976E-04    0.6975E-04    0.1127E-07
  1531.40    0.7598E-04    0.7597E-04    0.1228E-07
  1533.73    0.8307E-04    0.8305E-04    0.1343E-07
  1536.05    0.9119E-04    0.9117E-04    0.1474E-07
  1538.38    0.1006E-03    0.1005E-03    0.1626E-07
  1540.70    0.1114E-03    0.1114E-03    0.1802E-07
  1543.03    0.1241E-03    0.1241E-03    0.2008E-07
  1545.35    0.1391E-03    0.1391E-03    0.2251E-07
  1547.68    0.1569E-03    0.1569E-03    0.2540E-07
  1550.00    0.1783E-03    0.1782E-03    0.2886E-07
  1552.33    0.2041E-03    0.2041E-03    0.3305E-07
  1554.66    0.2358E-03    0.2358E-03    0.3819E-07
  1556.98    0.2751E-03    0.2750E-03    0.4455E-07
  1559.31    0.3244E-03    0.3243E-03    0.5255E-07
  1561.63    0.3871E-03    0.3870E-03    0.6271E-07
  1563.96    0.4679E-03    0.4678E-03    0.7581E-07
  1566.28    0.5732E-03    0.5731E-03    0.9288E-07
  1568.61    0.7115E-03    0.7114E-03    0.1153E-06
  1570.93    0.8928E-03    0.8926E-03    0.1447E-06
  1573.26    0.1126E-02    0.1126E-02    0.1824E-06
  1575.59    0.1408E-02    0.1407E-02    0.2282E-06
  1577.91    0.1705E-02    0.1705E-02    0.2764E-06
  1580.24    0.1937E-02    0.1937E-02    0.3140E-06
  1582.56    0.2000E-02    0.2000E-02    0.3242E-06
  1584.89    0.1860E-02    0.1860E-02    0.3015E-06
  1587.21    0.1589E-02    0.1589E-02    0.2576E-06
  1589.54    0.1291E-02    0.1291E-02    0.2092E-06
  1591.86    0.1027E-02    0.1026E-02    0.1664E-06
  1594.19    0.8149E-03    0.8148E-03    0.1321E-06
  1596.51    0.6519E-03    0.6518E-03    0.1056E-06
  1598.84    0.5279E-03    0.5278E-03    0.8554E-07
  1601.17    0.4333E-03    0.4332E-03    0.7019E-07
  1603.49    0.3603E-03    0.3603E-03    0.5837E-07
  1605.82    0.3034E-03    0.3034E-03    0.4915E-07
  1608.14    0.2585E-03    0.2584E-03    0.4186E-07
  1610.47    0.2225E-03    0.2224E-03    0.3602E-07
  1612.79    0.1933E-03    0.1933E-03    0.3129E-07
  1615.12    0.1694E-03    0.1693E-03    0.2741E-07
  1617.44    0.1495E-03    0.1495E-03    0.2420E-07
  1619.77    0.1329E-03    0.1329E-03    0.2151E-07
  1622.09    0.1189E-03    0.1189E-03    0.1923E-07
  1624.42    0.1070E-03    0.1070E-03    0.1730E-07
  1626.75    0.9675E-04    0.9673E-04    0.1564E-07
  1629.07    0.8791E-04    0.8790E-04    0.1421E-07
  1631.40    0.8023E-04    0.8021E-04    0.1296E-07
  1633.72    0.7351E-04    0.7350E-04    0.1187E-07
  1636.05    0.6760E-04    0.6759E-04    0.1091E-07
  1638.37    0.6238E-04    0.6237E-04    0.1007E-07
  1640.70    0.5775E-04    0.5774E-04    0.9317E-08
  1643.02    0.5362E-04    0.5361E-04    0.8647E-08
  1645.35    0.4992E-04    0.4991E-04    0.8047E-08
  1647.67    0.4659E-04    0.4658E-04    0.7508E-08
  1650.00    0.4359E-04    0.4359E-04    0.7022E-08
  1652.33    0.4088E-04    0.4088E-04    0.6582E-08
  1654.65    0.3842E-04    0.3841E-04    0.6183E-08
  1656.98    0.3618E-04    0.3617E-04    0.5819E-08
  1659.30    0.3413E-04    0.3413E-04    0.5487E-08
  1661.63    0.3226E-04    0.3225E-04    0.5184E-08
  1663.95    0.3054E-04    0.3053E-04    0.4905E-08
  1666.28    0.2896E-04    0.2895E-04    0.4649E-08
  1668.60    0.2750E-04    0.2750E-04    0.4412E-08
  1670.93    0.2616E-04    0.2615E-04    0.4194E-08
  1673.26    0.2491E-04    0.2491E-04    0.3992E-08
  1675.58    0.2376E-04    0.2375E-04    0.3805E-08
  1677.91    0.2268E-04    0.2268E-04    0.3631E-08
  1680.23    0.2169E-04    0.2168E-04    0.3469E-08
  1682.56    0.2076E-04    0.2075E-04    0.3318E-08
  1684.88    0.1989E-04    0.1988E-04    0.3177E-08
  1687.21    0.1907E-04    0.1907E-04    0.3045E-08
  1689.53    0.1831E-04    0.1831E-04    0.2922E-08
  1691.86    0.1760E-04    0.1760E-04    0.2806E-08
  1694.18    0.1693E-04    0.1693E-04    0.2697E-08
  1696.51    0.1630E-04    0.1630E-04    0.2595E-08
  1698.84    0.1571E-04    0.1571E-04    0.2499E-08
  1701.16    0.1515E-04    0.1515E-04    0.2409E-08
  1703.49    0.1463E-04    0.1462E-04    0.2323E-08
  1705.81    0.1413E-04    0.1413E-04    0.2243E-08
  1708.14    0.1366E-04    0.1366E-04    0.2166E-08
  1710.46    0.1321E-04    0.1321E-04    0.2094E-08
  1712.79    0.1279E-04    0.1279E-04    0.2026E-08
  1715.11    0.1239E-04    0.1239E-04    0.1961E-08
  1717.44    0.1201E-04    0.1201E-04    0.1899E-08
  1719.76    0.1165E-04    0.1165E-04    0.1841E-08
  1722.09    0.1131E-04    0.1131E-04    0.1785E-08
  1724.42    0.1099E-04    0.1099E-04    0.1732E-08
  1726.74    0.1068E-04    0.1068E-04    0.1682E-08
  1729.07    0.1038E-04    0.1038E-04    0.1634E-08
  1731.39    0.1010E-04    0.1010E-04    0.1588E-08
  1733.72    0.9833E-05    0.9831E-05    0.1545E-08
  1736.04    0.9576E-05    0.9575E-05    0.1503E-08
  1738.37    0.9331E-05    0.9330E-05    0.1463E-08
  1740.69    0.9097E-05    0.9096E-05    0.1425E-08
  1743.02    0.8873E-05    0.8872E-05    0.1389E-08
  1745.34    0.8659E-05    0.8657E-05    0.1354E-08
  1747.67    0.8453E-05    0.8452E-05    0.1320E-08
  1750.00    0.8257E-05    0.8255E-05    0.1288E-08
  1752.32    0.8068E-05    0.8067E-05    0.1258E-08
  1754.65    0.7887E-05    0.7886E-05    0.1228E-08
  1756.97    0.7713E-05    0.7712E-05    0.1200E-08
  1759.30    0.7546E-05    0.7545E-05    0.1173E-08
  1761.62    0.7386E-05    0.7385E-05    0.1147E-08
  1763.95    0.7232E-05    0.7231E-05    0.1122E-08
  1766.27    0.7083E-05    0.7082E-05    0.1097E-08
  1768.60    0.6941E-05    0.6940E-05    0.1074E-08
  1770.93    0.6804E-05    0.6802E-05    0.1052E-08
  1773.25    0.6671E-05    0.6670E-05    0.1030E-08
  1775.58    0.6544E-05    0.6543E-05    0.1009E-08
  1777.90    0.6421E-05    0.6420E-05    0.9894E-09
  1780.23    0.6303E-05    0.6302E-05    0.9701E-09
  1782.55    0.6189E-05    0.6188E-05    0.9514E-09
  1784.88    0.6078E-05    0.6077E-05    0.9334E-09
  1787.20    0.5972E-05    0.5971E-05    0.9161E-09
  1789.53    0.5869E-05    0.5868E-05    0.8993E-09
  1791.85    0.5770E-05    0.5769E-05    0.8831E-09
  1794.18    0.5674E-05    0.5673E-05    0.8674E-09
  1796.51    0.5582E-05    0.5581E-05    0.8523E-09
  1798.83    0.5492E-05    0.5491E-05    0.8376E-09
  1801.16    0.5405E-05    0.5404E-05    0.8234E-09
  1803.48    0.5321E-05    0.5321E-05    0.8097E-09
  1805.81    0.5240E-05    0.5240E-05    0.7964E-09
  1808.13    0.5162E-05    0.5161E-05    0.7835E-09
  1810.46    0.5086E-05    0.5085E-05    0.7711E-09
  1812.78    0.5012E-05    0.5011E-05    0.7590E-09
  1815.11    0.4941E-05    0.4940E-05    0.7473E-09
  1817.43    0.4871E-05    0.4871E-05    0.7360E-09
  1819.76    0.4804E-05    0.4804E-05    0.7249E-09
  1822.09    0.4739E-05    0.4739E-05    0.7143E-09
  1824.41    0.4676E-05    0.4676E-05    0.7039E-09
  1826.74    0.4615E-05    0.4614E-05    0.6939E-09
  1829.06    0.4556E-05    0.4555E-05    0.6841E-09
  1831.39    0.4498E-05    0.4497E-05    0.6746E-09
  1833.71    0.4442E-05    0.4442E-05    0.6654E-09
  1836.04    0.4388E-05    0.4387E-05    0.6565E-09
  1838.36    0.4335E-05    0.4335E-05    0.6478E-09
  1840.69    0.4284E-05    0.4283E-05    0.6394E-09
  1843.01    0.4234E-05    0.4234E-05    0.6311E-09
  1845.34    0.4186E-05    0.4185E-05    0.6232E-09
  1847.67    0.4139E-05    0.4138E-05    0.6154E-09
  1849.99    0.4093E-05    0.4093E-05    0.6079E-09
  1852.32    0.4049E-05    0.4048E-05    0.6005E-09
  1854.64    0.4006E-05    0.4005E-05    0.5934E-09
  1856.97    0.3964E-05    0.3963E-05    0.5864E-09
  1859.29    0.3923E-05    0.3922E-05    0.5797E-09
  1861.62    0.3883E-05    0.3882E-05    0.5731E-09
  1863.94    0.3844E-05    0.3844E-05    0.5667E-09
  1866.27    0.3807E-05    0.3806E-05    0.5604E-09
  1868.60    0.3770E-05    0.3770E-05    0.5543E-09
  1870.92    0.3734E-05    0.3734E-05    0.5484E-09
  1873.25    0.3700E-05    0.3699E-05    0.5426E-09
  1875.57    0.3666E-05    0.3665E-05    0.5370E-09
  1877.90    0.3633E-05    0.3632E-05    0.5315E-09
  1880.22    0.3601E-05    0.3600E-05    0.5262E-09
  1882.55    0.3570E-05    0.3569E-05    0.5210E-09
  1884.87    0.3539E-05    0.3539E-05    0.5159E-09
  1887.20    0.3510E-05    0.3509E-05    0.5110E-09
  1889.52    0.3481E-05    0.3480E-05    0.5061E-09
  1891.85    0.3453E-05    0.3452E-05    0.5014E-09
  1894.18    0.3425E-05    0.3425E-05    0.4968E-09
  1896.50    0.3399E-05    0.3398E-05    0.4923E-09
  1898.83    0.3373E-05    0.3372E-05    0.4880E-09
  1901.15    0.3347E-05    0.3347E-05    0.4837E-09
  1903.48    0.3322E-05    0.3322E-05    0.4795E-09
  1905.80    0.3298E-05    0.3298E-05    0.4755E-09
  1908.13    0.3275E-05    0.3274E-05    0.4715E-09
  1910.45    0.3252E-05    0.3251E-05    0.4676E-09
  1912.78    0.3230E-05    0.3229E-05    0.4639E-09
  1915.10    0.3208E-05    0.3207E-05    0.4602E-09
  1917.43    0.3187E-05    0.3186E-05    0.4566E-09
  1919.76    0.3166E-05    0.3165E-05    0.4531E-09
  1922.08    0.3146E-05    0.3145E-05    0.4496E-09
  1924.41    0.3126E-05    0.3125E-05    0.4463E-09
  1926.73    0.3107E-05    0.3106E-05    0.4430E-09
  1929.06    0.3088E-05    0.3088E-05    0.4398E-09
  1931.38    0.3070E-05    0.3069E-05    0.4367E-09
  1933.71    0.3052E-05    0.3051E-05    0.4336E-09
  1936.03    0.3034E-05    0.3034E-05    0.4306E-09
  1938.36    0.3017E-05    0.3017E-05    0.4277E-09
  1940.68    0.3001E-05    0.3000E-05    0.4249E-09
  1943.01    0.2985E-05    0.2984E-05    0.4221E-09
  1945.34    0.2969E-05    0.2969E-05    0.4194E-09
  1947.66    0.2954E-05    0.2953E-05    0.4167E-09
  1949.99    0.2939E-05    0.2938E-05    0.4141E-09
  1952.31    0.2924E-05    0.2924E-05    0.4116E-09
  1954.64    0.2910E-05    0.2909E-05    0.4091E-09
  1956.96    0.2896E-05    0.2896E-05    0.4067E-09
  1959.29    0.2882E-05    0.2882E-05    0.4043E-09
  1961.61    0.2869E-05    0.2869E-05    0.4020E-09
  1963.94    0.2856E-05    0.2856E-05    0.3998E-09
  1966.27    0.2844E-05    0.2843E-05    0.3976E-09
  1968.59    0.2831E-05    0.2831E-05    0.3954E-09
  1970.92    0.2820E-05    0.2819E-05    0.3933E-09
  1973.24    0.2808E-05    0.2808E-05    0.3912E-09
  1975.57    0.2797E-05    0.2796E-05    0.3892E-09
  1977.89    0.2785E-05    0.2785E-05    0.3873E-09
  1980.22    0.2775E-05    0.2774E-05    0.3853E-09
  1982.54    0.2764E-05    0.2764E-05    0.3835E-09
  1984.87    0.2754E-05    0.2754E-05    0.3816E-09
  1987.19    0.2744E-05    0.2744E-05    0.3798E-09
  1989.52    0.2734E-05    0.2734E-05    0.3781E-09
  1991.85    0.2725E-05    0.2724E-05    0.3764E-09
  1994.17    0.2716E-05    0.2715E-05    0.3747E-09
  1996.50    0.2707E-05    0.2706E-05    0.3730E-09
  1998.82    0.2698E-05    0.2698E-05    0.3715E-09
  2001.15    0.2689E-05    0.2689E-05    0.3699E-09
  2003.47    0.2681E-05    0.2681E-05    0.3684E-09
  2005.80    0.2673E-05    0.2673E-05    0.3669E-09
  2008.12    0.2665E-05    0.2665E-05    0.3654E-09
  2010.45    0.2658E-05    0.2657E-05    0.3640E-09
  2012.77    0.2650E-05    0.2650E-05    0.3626E-09
  2015.10    0.2643E-05    0.2643E-05    0.3613E-09
  2017.43    0.2636E-05    0.2636E-05    0.3599E-09
  2019.75    0.2629E-05    0.2629E-05    0.3587E-09
  2022.08    0.2623E-05    0.2622E-05    0.3574E-09
  2024.40    0.2616E-05    0.2616E-05    0.3562E-09
  2026.73    0.2610E-05    0.2610E-05    0.3550E-09
  2029.05    0.2604E-05    0.2604E-05    0.3538E-09
  2031.38    0.2598E-05    0.2598E-05    0.3527E-09
  2033.70    0.2592E-05    0.2592E-05    0.3515E-09
  2036.03    0.2587E-05    0.2587E-05    0.3505E-09
  2038.36    0.2582E-05    0.2581E-05    0.3494E-09
  2040.68    0.2576E-05    0.2576E-05    0.3484E-09
  2043.01    0.2571E-05    0.2571E-05    0.3474E-09
  2045.33    0.2567E-05    0.2566E-05    0.3464E-09
  2047.66    0.2562E-05    0.2562E-05    0.3454E-09
  2049.98    0.2557E-05    0.2557E-05    0.3445E-09
  2052.31    0.2553E-05    0.2553E-05    0.3436E-09
  2054.63    0.2549E-05    0.2548E-05    0.3427E-09
  2056.96    0.2545E-05    0.2544E-05    0.3419E-09
  2059.28    0.2541E-05    0.2540E-05    0.3410E-09
  2061.61    0.2537E-05    0.2537E-05    0.3402E-09
  2063.94    0.2533E-05    0.2533E-05    0.3394E-09
  2066.26    0.2530E-05    0.2530E-05    0.3387E-09
  2068.59    0.2527E-05    0.2526E-05    0.3379E-09
  2070.91    0.2523E-05    0.2523E-05    0.3372E-09
  2073.24    0.2520E-05    0.2520E-05    0.3365E-09
  2075.56    0.2517E-05    0.2517E-05    0.3358E-09
  2077.89    0.2515E-05    0.2514E-05    0.3351E-09
  2080.21    0.2512E-05    0.2512E-05    0.3345E-09
  2082.54    0.2509E-05    0.2509E-05    0.3339E-09
  2084.86    0.2507E-05    0.2507E-05    0.3333E-09
  2087.19    0.2505E-05    0.2504E-05    0.3327E-09
  2089.52    0.2502E-05    0.2502E-05    0.3321E-09
  2091.84    0.2500E-05    0.2500E-05    0.3316E-09
  2094.17    0.2498E-05    0.2498E-05    0.3310E-09
  2096.49    0.2497E-05    0.2496E-05    0.3305E-09
  2098.82    0.2495E-05    0.2495E-05    0.3300E-09
  2101.14    0.2493E-05    0.2493E-05    0.3295E-09
  2103.47    0.2492E-05    0.2492E-05    0.3291E-09
  2105.79    0.2490E-05    0.2490E-05    0.3286E-09
  2108.12    0.2489E-05    0.2489E-05    0.3282E-09
  2110.44    0.2488E-05    0.2488E-05    0.3278E-09
  2112.77    0.2487E-05    0.2487E-05    0.3274E-09
  2115.10    0.2486E-05    0.2486E-05    0.3270E-09
  2117.42    0.2485E-05    0.2485E-05    0.3267E-09
  2119.75    0.2484E-05    0.2484E-05    0.3263E-09
  2122.07    0.2484E-05    0.2483E-05    0.3260E-09
  2124.40    0.2483E-05    0.2483E-05    0.3257E-09
  2126.72    0.2483E-05    0.2482E-05    0.3254E-09
  2129.05    0.2482E-05    0.2482E-05    0.3251E-09
  2131.37    0.2482E-05    0.2482E-05    0.3248E-09
  2133.70    0.2482E-05    0.2482E-05    0.3246E-09
  2136.03    0.2482E-05    0.2482E-05    0.3243E-09
  2138.35    0.2482E-05    0.2482E-05    0.3241E-09
  2140.68    0.2482E-05    0.2482E-05    0.3239E-09
  2143.00    0.2482E-05    0.2482E-05    0.3237E-09
  2145.33    0.2483E-05    0.2482E-05    0.3235E-09
  2147.65    0.2483E-05    0.2483E-05    0.3233E-09
  2149.98    0.2484E-05    0.2483E-05    0.3232E-09
  2152.30    0.2484E-05    0.2484E-05    0.3230E-09
  2154.63    0.2485E-05    0.2484E-05    0.3229E-09
  2156.95    0.2486E-05    0.2485E-05    0.3228E-09
  2159.28    0.2486E-05    0.2486E-05    0.3227E-09
  2161.61    0.2487E-05    0.2487E-05    0.3226E-09
  2163.93    0.2488E-05    0.2488E-05    0.3225E-09
  2166.26    0.2489E-05    0.2489E-05    0.3224E-09
  2168.58    0.2491E-05    0.2490E-05    0.3223E-09
  2170.91    0.2492E-05    0.2492E-05    0.3223E-09
  2173.23    0.2493E-05    0.2493E-05    0.3223E-09
  2175.56    0.2495E-05    0.2494E-05    0.3222E-09
  2177.88    0.2496E-05    0.2496E-05    0.3222E-09
  2180.21    0.2498E-05    0.2497E-05    0.3222E-09
  2182.53    0.2499E-05    0.2499E-05    0.3222E-09
  2184.86    0.2501E-05    0.2501E-05    0.3223E-09
  2187.19    0.2503E-05    0.2502E-05    0.3223E-09
  2189.51    0.2505E-05    0.2504E-05    0.3223E-09
  2191.84    0.2507E-05    0.2506E-05    0.3224E-09
  2194.16    0.2509E-05    0.2508E-05    0.3225E-09
  2196.49    0.2511E-05    0.2510E-05    0.3226E-09
  2198.81    0.2513E-05    0.2513E-05    0.3226E-09
  2201.14    0.2515E-05    0.2515E-05    0.3227E-09
  2203.46    0.2518E-05    0.2517E-05    0.3229E-09
  2205.79    0.2520E-05    0.2520E-05    0.3230E-09
  2208.11    0.2522E-05    0.2522E-05    0.3231E-09
  2210.44    0.2525E-05    0.2525E-05    0.3233E-09
  2212.77    0.2528E-05    0.2527E-05    0.3234E-09
  2215.09    0.2530E-05    0.2530E-05    0.3236E-09
  2217.42    0.2533E-05    0.2533E-05    0.3237E-09
  2219.74    0.2536E-05    0.2536E-05    0.3239E-09
  2222.07    0.2539E-05    0.2538E-05    0.3241E-09
  2224.39    0.2542E-05    0.2541E-05    0.3243E-09
  2226.72    0.2545E-05    0.2544E-05    0.3245E-09
  2229.04    0.2548E-05    0.2548E-05    0.3248E-09
  2231.37    0.2551E-05    0.2551E-05    0.3250E-09
  2233.70    0.2554E-05    0.2554E-05    0.3252E-09
  2236.02    0.2558E-05    0.2557E-05    0.3255E-09
  2238.35    0.2561E-05    0.2561E-05    0.3258E-09
  2240.67    0.2564E-05    0.2564E-05    0.3260E-09
  2243.00    0.2568E-05    0.2568E-05    0.3263E-09
  2245.32    0.2571E-05    0.2571E-05    0.3266E-09
  2247.65    0.2575E-05    0.2575E-05    0.3269E-09
  2249.97    0.2579E-05    0.2579E-05    0.3272E-09
  2252.30    0.2583E-05    0.2582E-05    0.3275E-09
  2254.62    0.2586E-05    0.2586E-05    0.3279E-09
  2256.95    0.2590E-05    0.2590E-05    0.3282E-09
  2259.28    0.2594E-05    0.2594E-05    0.3285E-09
  2261.60    0.2598E-05    0.2598E-05    0.3289E-09
  2263.93    0.2602E-05    0.2602E-05    0.3293E-09
  2266.25    0.2607E-05    0.2606E-05    0.3296E-09
  2268.58    0.2611E-05    0.2611E-05    0.3300E-09
  2270.90    0.2615E-05    0.2615E-05    0.3304E-09
  2273.23    0.2620E-05    0.2619E-05    0.3308E-09
  2275.55    0.2624E-05    0.2624E-05    0.3312E-09
  2277.88    0.2628E-05    0.2628E-05    0.3316E-09
  2280.20    0.2633E-05    0.2633E-05    0.3321E-09
  2282.53    0.2638E-05    0.2637E-05    0.3325E-09
  2284.86    0.2642E-05    0.2642E-05    0.3329E-09
  2287.18    0.2647E-05    0.2647E-05    0.3334E-09
  2289.51    0.2652E-05    0.2651E-05    0.3338E-09
  2291.83    0.2657E-05    0.2656E-05    0.3343E-09
  2294.16    0.2662E-05    0.2661E-05    0.3348E-09
  2296.48    0.2667E-05    0.2666E-05    0.3353E-09
  2298.81    0.2672E-05    0.2671E-05    0.3358E-09
  2301.13    0.2677E-05    0.2676E-05    0.3363E-09
  2303.46    0.2682E-05    0.2682E-05    0.3368E-09
  2305.78    0.2687E-05    0.2687E-05    0.3373E-09
  2308.11    0.2693E-05    0.2692E-05    0.3378E-09
  2310.44    0.2698E-05    0.2698E-05    0.3384E-09
  2312.76    0.2703E-05    0.2703E-05    0.3389E-09
  2315.09    0.2709E-05    0.2708E-05    0.3395E-09
  2317.41    0.2714E-05    0.2714E-05    0.3401E-09
  2319.74    0.2720E-05    0.2720E-05    0.3406E-09
  2322.06    0.2726E-05    0.2725E-05    0.3412E-09
  2324.39    0.2731E-05    0.2731E-05    0.3418E-09
  2326.71    0.2737E-05    0.2737E-05    0.3424E-09
  2329.04    0.2743E-05    0.2743E-05    0.3430E-09
  2331.37    0.2749E-05    0.2749E-05    0.3436E-09
  2333.69    0.2755E-05    0.2755E-05    0.3442E-09
  2336.02    0.2761E-05    0.2761E-05    0.3449E-09
  2338.34    0.2767E-05    0.2767E-05    0.3455E-09
  2340.67    0.2773E-05    0.2773E-05    0.3462E-09
  2342.99    0.2780E-05    0.2779E-05    0.3468E-09
  2345.32    0.2786E-05    0.2786E-05    0.3475E-09
  2347.64    0.2792E-05    0.2792E-05    0.3481E-09
  2349.97    0.2799E-05    0.2798E-05    0.3488E-09
  2352.29    0.2805E-05    0.2805E-05    0.3495E-09
  2354.62    0.2812E-05    0.2811E-05    0.3502E-09
  2356.95    0.2818E-05    0.2818E-05    0.3509E-09
  2359.27    0.2825E-05    0.2825E-05    0.3516E-09
  2361.60    0.2832E-05    0.2832E-05    0.3524E-09
  2363.92    0.2839E-05    0.2838E-05    0.3531E-09
  2366.25    0.2846E-05    0.2845E-05    0.3538E-09
  2368.57    0.2853E-05    0.2852E-05    0.3546E-09
  2370.90    0.2860E-05    0.2859E-05    0.3553E-09
  2373.22    0.2867E-05    0.2866E-05    0.3561E-09
  2375.55    0.2874E-05    0.2873E-05    0.3569E-09
  2377.87    0.2881E-05    0.2881E-05    0.3576E-09
  2380.20    0.2888E-05    0.2888E-05    0.3584E-09
  2382.53    0.2896E-05    0.2895E-05    0.3592E-09
  2384.85    0.2903E-05    0.2903E-05    0.3600E-09
  2387.18    0.2910E-05    0.2910E-05    0.3609E-09
  2389.50    0.2918E-05    0.2918E-05    0.3617E-09
  2391.83    0.2926E-05    0.2925E-05    0.3625E-09
  2394.15    0.2933E-05    0.2933E-05    0.3633E-09
  2396.48    0.2941E-05    0.2941E-05    0.3642E-09
  2398.80    0.2949E-05    0.2948E-05    0.3651E-09
  2401.13    0.2957E-05    0.2956E-05    0.3659E-09
  2403.45    0.2964E-05    0.2964E-05    0.3668E-09
  2405.78    0.2972E-05    0.2972E-05    0.3677E-09
  2408.11    0.2980E-05    0.2980E-05    0.3686E-09
  2410.43    0.2989E-05    0.2988E-05    0.3695E-09
  2412.76    0.2997E-05    0.2996E-05    0.3704E-09
  2415.08    0.3005E-05    0.3005E-05    0.3713E-09
  2417.41    0.3013E-05    0.3013E-05    0.3722E-09
  2419.73    0.3022E-05    0.3021E-05    0.3732E-09
  2422.06    0.3030E-05    0.3030E-05    0.3741E-09
  2424.38    0.3039E-05    0.3038E-05    0.3750E-09
  2426.71    0.3047E-05    0.3047E-05    0.3760E-09
  2429.04    0.3056E-05    0.3056E-05    0.3770E-09
  2431.36    0.3065E-05    0.3064E-05    0.3780E-09
  2433.69    0.3074E-05    0.3073E-05    0.3789E-09
  2436.01    0.3082E-05    0.3082E-05    0.3799E-09
  2438.34    0.3091E-05    0.3091E-05    0.3809E-09
  2440.66    0.3100E-05    0.3100E-05    0.3820E-09
  2442.99    0.3109E-05    0.3109E-05    0.3830E-09
  2445.31    0.3119E-05    0.3118E-05    0.3840E-09
  2447.64    0.3128E-05    0.3127E-05    0.3851E-09
  2449.96    0.3137E-05    0.3137E-05    0.3861E-09
  2452.29    0.3146E-05    0.3146E-05    0.3872E-09
  2454.62    0.3156E-05    0.3155E-05    0.3882E-09
  2456.94    0.3165E-05    0.3165E-05    0.3893E-09
  2459.27    0.3175E-05    0.3175E-05    0.3904E-09
  2461.59    0.3185E-05    0.3184E-05    0.3915E-09
  2463.92    0.3194E-05    0.3194E-05    0.3926E-09
  2466.24    0.3204E-05    0.3204E-05    0.3937E-09
  2468.57    0.3214E-05    0.3214E-05    0.3948E-09
  2470.89    0.3224E-05    0.3224E-05    0.3960E-09
  2473.22    0.3234E-05    0.3234E-05    0.3971E-09
  2475.54    0.3244E-05    0.3244E-05    0.3983E-09
  2477.87    0.3254E-05    0.3254E-05    0.3994E-09
  2480.20    0.3265E-05    0.3264E-05    0.4006E-09
  2482.52    0.3275E-05    0.3275E-05    0.4018E-09
  2484.85    0.3285E-05    0.3285E-05    0.4030E-09
  2487.17    0.3296E-05    0.3295E-05    0.4042E-09
  2489.50    0.3306E-05    0.3306E-05    0.4054E-09
  2491.82    0.3317E-05    0.3317E-05    0.4066E-09
  2494.15    0.3328E-05    0.3327E-05    0.4078E-09
  2496.47    0.3339E-05    0.3338E-05    0.4091E-09
  2498.80    0.3349E-05    0.3349E-05    0.4103E-09
  2501.13    0.3360E-05    0.3360E-05    0.4116E-09
  2503.45    0.3371E-05    0.3371E-05    0.4128E-09
  2505.78    0.3383E-05    0.3382E-05    0.4141E-09
  2508.10    0.3394E-05    0.3393E-05    0.4154E-09
  2510.43    0.3405E-05    0.3405E-05    0.4167E-09
  2512.75    0.3416E-05    0.3416E-05    0.4180E-09
  2515.08    0.3428E-05    0.3428E-05    0.4193E-09
  2517.40    0.3439E-05    0.3439E-05    0.4207E-09
  2519.73    0.3451E-05    0.3451E-05    0.4220E-09
  2522.05    0.3463E-05    0.3462E-05    0.4234E-09
  2524.38    0.3475E-05    0.3474E-05    0.4247E-09
  2526.71    0.3486E-05    0.3486E-05    0.4261E-09
  2529.03    0.3498E-05    0.3498E-05    0.4275E-09
  2531.36    0.3511E-05    0.3510E-05    0.4289E-09
  2533.68    0.3523E-05    0.3522E-05    0.4303E-09
  2536.01    0.3535E-05    0.3534E-05    0.4317E-09
  2538.33    0.3547E-05    0.3547E-05    0.4331E-09
  2540.66    0.3560E-05    0.3559E-05    0.4345E-09
  2542.98    0.3572E-05    0.3572E-05    0.4360E-09
  2545.31    0.3585E-05    0.3584E-05    0.4375E-09
  2547.63    0.3597E-05    0.3597E-05    0.4389E-09
  2549.96    0.3610E-05    0.3610E-05    0.4404E-09
  2552.29    0.3623E-05    0.3623E-05    0.4419E-09
  2554.61    0.3636E-05    0.3636E-05    0.4434E-09
  2556.94    0.3649E-05    0.3649E-05    0.4449E-09
  2559.26    0.3662E-05    0.3662E-05    0.4464E-09
  2561.59    0.3675E-05    0.3675E-05    0.4480E-09
  2563.91    0.3689E-05    0.3688E-05    0.4495E-09
  2566.24    0.3702E-05    0.3702E-05    0.4511E-09
  2568.56    0.3716E-05    0.3715E-05    0.4527E-09
  2570.89    0.3729E-05    0.3729E-05    0.4543E-09
  2573.21    0.3743E-05    0.3743E-05    0.4559E-09
  2575.54    0.3757E-05    0.3756E-05    0.4575E-09
  2577.87    0.3771E-05    0.3770E-05    0.4591E-09
  2580.19    0.3785E-05    0.3784E-05    0.4607E-09
  2582.52    0.3799E-05    0.3798E-05    0.4624E-09
  2584.84    0.3813E-05    0.3813E-05    0.4640E-09
  2587.17    0.3827E-05    0.3827E-05    0.4657E-09
  2589.49    0.3842E-05    0.3841E-05    0.4674E-09
  2591.82    0.3856E-05    0.3856E-05    0.4691E-09
  2594.14    0.3871E-05    0.3871E-05    0.4708E-09
  2596.47    0.3886E-05    0.3885E-05    0.4725E-09
  2598.80    0.3901E-05    0.3900E-05    0.4743E-09
  2601.12    0.3916E-05    0.3915E-05    0.4760E-09
  2603.45    0.3931E-05    0.3930E-05    0.4778E-09
  2605.77    0.3946E-05    0.3945E-05    0.4795E-09
  2608.10    0.3961E-05    0.3961E-05    0.4813E-09
  2610.42    0.3976E-05    0.3976E-05    0.4831E-09
  2612.75    0.3992E-05    0.3991E-05    0.4850E-09
  2615.07    0.4008E-05    0.4007E-05    0.4868E-09
  2617.40    0.4023E-05    0.4023E-05    0.4886E-09
  2619.72    0.4039E-05    0.4039E-05    0.4905E-09
  2622.05    0.4055E-05    0.4055E-05    0.4924E-09
  2624.38    0.4071E-05    0.4071E-05    0.4942E-09
  2626.70    0.4087E-05    0.4087E-05    0.4961E-09
  2629.03    0.4104E-05    0.4103E-05    0.4981E-09
  2631.35    0.4120E-05    0.4120E-05    0.5000E-09
  2633.68    0.4137E-05    0.4136E-05    0.5019E-09
  2636.00    0.4153E-05    0.4153E-05    0.5039E-09
  2638.33    0.4170E-05    0.4170E-05    0.5059E-09
  2640.65    0.4187E-05    0.4186E-05    0.5078E-09
  2642.98    0.4204E-05    0.4203E-05    0.5098E-09
  2645.30    0.4221E-05    0.4221E-05    0.5119E-09
  2647.63    0.4238E-05    0.4238E-05    0.5139E-09
  2649.96    0.4256E-05    0.4255E-05    0.5159E-09
  2652.28    0.4273E-05    0.4273E-05    0.5180E-09
  2654.61    0.4291E-05    0.4291E-05    0.5201E-09
  2656.93    0.4309E-05    0.4308E-05    0.5222E-09
  2659.26    0.4327E-05    0.4326E-05    0.5243E-09
  2661.58    0.4345E-05    0.4344E-05    0.5264E-09
  2663.91    0.4363E-05    0.4362E-05    0.5286E-09
  2666.23    0.4381E-05    0.4381E-05    0.5307E-09
  2668.56    0.4400E-05    0.4399E-05    0.5329E-09
  2670.88    0.4418E-05    0.4418E-05    0.5351E-09
  2673.21    0.4437E-05    0.4437E-05    0.5373E-09
  2675.54    0.4456E-05    0.4455E-05    0.5395E-09
  2677.86    0.4475E-05    0.4474E-05    0.5417E-09
  2680.19    0.4494E-05    0.4494E-05    0.5440E-09
  2682.51    0.4513E-05    0.4513E-05    0.5463E-09
  2684.84    0.4533E-05    0.4532E-05    0.5486E-09
  2687.16    0.4552E-05    0.4552E-05    0.5509E-09
  2689.49    0.4572E-05    0.4572E-05    0.5532E-09
  2691.81    0.4592E-05    0.4591E-05    0.5556E-09
  2694.14    0.4612E-05    0.4611E-05    0.5579E-09
  2696.47    0.4632E-05    0.4632E-05    0.5603E-09
  2698.79    0.4653E-05    0.4652E-05    0.5627E-09
  2701.12    0.4673E-05    0.4672E-05    0.5651E-09
  2703.44    0.4694E-05    0.4693E-05    0.5676E-09
  2705.77    0.4714E-05    0.4714E-05    0.5700E-09
  2708.09    0.4735E-05    0.4735E-05    0.5725E-09
  2710.42    0.4756E-05    0.4756E-05    0.5750E-09
  2712.74    0.4778E-05    0.4777E-05    0.5775E-09
  2715.07    0.4799E-05    0.4799E-05    0.5800E-09
  2717.39    0.4821E-05    0.4820E-05    0.5826E-09
  2719.72    0.4842E-05    0.4842E-05    0.5851E-09
  2722.05    0.4864E-05    0.4864E-05    0.5877E-09
  2724.37    0.4886E-05    0.4886E-05    0.5904E-09
  2726.70    0.4909E-05    0.4908E-05    0.5930E-09
  2729.02    0.4931E-05    0.4931E-05    0.5956E-09
  2731.35    0.4954E-05    0.4953E-05    0.5983E-09
  2733.67    0.4976E-05    0.4976E-05    0.6010E-09
  2736.00    0.4999E-05    0.4999E-05    0.6037E-09
  2738.32    0.5023E-05    0.5022E-05    0.6065E-09
  2740.65    0.5046E-05    0.5045E-05    0.6092E-09
  2742.97    0.5069E-05    0.5069E-05    0.6120E-09
  2745.30    0.5093E-05    0.5092E-05    0.6148E-09
  2747.63    0.5117E-05    0.5116E-05    0.6176E-09
  2749.95    0.5141E-05    0.5140E-05    0.6205E-09
  2752.28    0.5165E-05    0.5164E-05    0.6233E-09
  2754.60    0.5189E-05    0.5189E-05    0.6262E-09
  2756.93    0.5214E-05    0.5213E-05    0.6291E-09
  2759.25    0.5239E-05    0.5238E-05    0.6321E-09
  2761.58    0.5264E-05    0.5263E-05    0.6350E-09
  2763.90    0.5289E-05    0.5288E-05    0.6380E-09
  2766.23    0.5314E-05    0.5314E-05    0.6410E-09
  2768.55    0.5340E-05    0.5339E-05    0.6441E-09
  2770.88    0.5366E-05    0.5365E-05    0.6471E-09
  2773.21    0.5392E-05    0.5391E-05    0.6502E-09
  2775.53    0.5418E-05    0.5417E-05    0.6533E-09
  2777.86    0.5444E-05    0.5444E-05    0.6564E-09
  2780.18    0.5471E-05    0.5470E-05    0.6596E-09
  2782.51    0.5498E-05    0.5497E-05    0.6628E-09
  2784.83    0.5525E-05    0.5524E-05    0.6660E-09
  2787.16    0.5552E-05    0.5551E-05    0.6692E-09
  2789.48    0.5579E-05    0.5579E-05    0.6725E-09
  2791.81    0.5607E-05    0.5606E-05    0.6758E-09
  2794.14    0.5635E-05    0.5634E-05    0.6791E-09
  2796.46    0.5663E-05    0.5662E-05    0.6824E-09
  2798.79    0.5691E-05    0.5691E-05    0.6858E-09
  2801.11    0.5720E-05    0.5719E-05    0.6892E-09
  2803.44    0.5749E-05    0.5748E-05    0.6926E-09
  2805.76    0.5778E-05    0.5777E-05    0.6961E-09
  2808.09    0.5807E-05    0.5807E-05    0.6995E-09
  2810.41    0.5837E-05    0.5836E-05    0.7030E-09
  2812.74    0.5867E-05    0.5866E-05    0.7066E-09
  2815.06    0.5897E-05    0.5896E-05    0.7101E-09
  2817.39    0.5927E-05    0.5926E-05    0.7137E-09
  2819.72    0.5957E-05    0.5957E-05    0.7174E-09
  2822.04    0.5988E-05    0.5987E-05    0.7210E-09
  2824.37    0.6019E-05    0.6018E-05    0.7247E-09
  2826.69    0.6050E-05    0.6050E-05    0.7284E-09
  2829.02    0.6082E-05    0.6081E-05    0.7322E-09
  2831.34    0.6114E-05    0.6113E-05    0.7360E-09
  2833.67    0.6146E-05    0.6145E-05    0.7398E-09
  2835.99    0.6178E-05    0.6178E-05    0.7436E-09
  2838.32    0.6211E-05    0.6210E-05    0.7475E-09
  2840.64    0.6244E-05    0.6243E-05    0.7514E-09
  2842.97    0.6277E-05    0.6276E-05    0.7554E-09
  2845.30    0.6310E-05    0.6310E-05    0.7593E-09
  2847.62    0.6344E-05    0.6343E-05    0.7634E-09
  2849.95    0.6378E-05    0.6377E-05    0.7674E-09
  2852.27    0.6413E-05    0.6412E-05    0.7715E-09
  2854.60    0.6447E-05    0.6446E-05    0.7756E-09
  2856.92    0.6482E-05    0.6481E-05    0.7798E-09
  2859.25    0.6517E-05    0.6516E-05    0.7839E-09
  2861.57    0.6553E-05    0.6552E-05    0.7882E-09
  2863.90    0.6589E-05    0.6588E-05    0.7924E-09
  2866.23    0.6625E-05    0.6624E-05    0.7967E-09
  2868.55    0.6661E-05    0.6660E-05    0.8011E-09
  2870.88    0.6698E-05    0.6697E-05    0.8055E-09
  2873.20    0.6735E-05    0.6734E-05    0.8099E-09
  2875.53    0.6772E-05    0.6772E-05    0.8143E-09
  2877.85    0.6810E-05    0.6809E-05    0.8188E-09
  2880.18    0.6848E-05    0.6847E-05    0.8233E-09
  2882.50    0.6887E-05    0.6886E-05    0.8279E-09
  2884.83    0.6925E-05    0.6925E-05    0.8325E-09
  2887.15    0.6965E-05    0.6964E-05    0.8372E-09
  2889.48    0.7004E-05    0.7003E-05    0.8419E-09
  2891.81    0.7044E-05    0.7043E-05    0.8466E-09
  2894.13    0.7084E-05    0.7083E-05    0.8514E-09
  2896.46    0.7124E-05    0.7124E-05    0.8562E-09
  2898.78    0.7165E-05    0.7164E-05    0.8611E-09
  2901.11    0.7207E-05    0.7206E-05    0.8660E-09
  2903.43    0.7248E-05    0.7247E-05    0.8710E-09
  2905.76    0.7290E-05    0.7289E-05    0.8760E-09
  2908.08    0.7333E-05    0.7332E-05    0.8810E-09
  2910.41    0.7375E-05    0.7374E-05    0.8861E-09
  2912.73    0.7418E-05    0.7418E-05    0.8913E-09
  2915.06    0.7462E-05    0.7461E-05    0.8964E-09
  2917.39    0.7506E-05    0.7505E-05    0.9017E-09
  2919.71    0.7550E-05    0.7549E-05    0.9070E-09
  2922.04    0.7595E-05    0.7594E-05    0.9123E-09
  2924.36    0.7640E-05    0.7639E-05    0.9177E-09
  2926.69    0.7686E-05    0.7685E-05    0.9231E-09
  2929.01    0.7732E-05    0.7731E-05    0.9286E-09
  2931.34    0.7778E-05    0.7777E-05    0.9341E-09
  2933.66    0.7825E-05    0.7824E-05    0.9397E-09
  2935.99    0.7873E-05    0.7872E-05    0.9454E-09
  2938.31    0.7920E-05    0.7919E-05    0.9511E-09
  2940.64    0.7969E-05    0.7968E-05    0.9568E-09
  2942.97    0.8017E-05    0.8016E-05    0.9626E-09
  2945.29    0.8067E-05    0.8066E-05    0.9685E-09
  2947.62    0.8116E-05    0.8115E-05    0.9744E-09
  2949.94    0.8166E-05    0.8165E-05    0.9804E-09
  2952.27    0.8217E-05    0.8216E-05    0.9864E-09
  2954.59    0.8268E-05    0.8267E-05    0.9925E-09
  2956.92    0.8319E-05    0.8318E-05    0.9986E-09
  2959.24    0.8372E-05    0.8371E-05    0.1005E-08
  2961.57    0.8424E-05    0.8423E-05    0.1011E-08
  2963.90    0.8477E-05    0.8476E-05    0.1017E-08
  2966.22    0.8531E-05    0.8530E-05    0.1024E-08
  2968.55    0.8585E-05    0.8584E-05    0.1030E-08
  2970.87    0.8640E-05    0.8639E-05    0.1037E-08
  2973.20    0.8695E-05    0.8694E-05    0.1043E-08
  2975.52    0.8751E-05    0.8750E-05    0.1050E-08
  2977.85    0.8807E-05    0.8806E-05    0.1057E-08
  2980.17    0.8864E-05    0.8863E-05    0.1064E-08
  2982.50    0.8921E-05    0.8920E-05    0.1070E-08
  2984.82    0.8979E-05    0.8978E-05    0.1077E-08
  2987.15    0.9038E-05    0.9037E-05    0.1084E-08
  2989.48    0.9097E-05    0.9096E-05    0.1091E-08
  2991.80    0.9157E-05    0.9156E-05    0.1099E-08
  2994.13    0.9217E-05    0.9216E-05    0.1106E-08
  2996.45    0.9278E-05    0.9277E-05    0.1113E-08
  2998.78    0.9340E-05    0.9339E-05    0.1120E-08
  3001.10    0.9402E-05    0.9401E-05    0.1128E-08
  3003.43    0.9465E-05    0.9464E-05    0.1135E-08
  3005.75    0.9529E-05    0.9527E-05    0.1143E-08
  3008.08    0.9593E-05    0.9592E-05    0.1151E-08
  3010.40    0.9658E-05    0.9657E-05    0.1158E-08
  3012.73    0.9723E-05    0.9722E-05    0.1166E-08
  3015.06    0.9790E-05    0.9788E-05    0.1174E-08
  3017.38    0.9857E-05    0.9855E-05    0.1182E-08
  3019.71    0.9924E-05    0.9923E-05    0.1190E-08
  3022.03    0.9993E-05    0.9991E-05    0.1198E-08
  3024.36    0.1006E-04    0.1006E-04    0.1206E-08
  3026.68    0.1013E-04    0.1013E-04    0.1215E-08
  3029.01    0.1020E-04    0.1020E-04    0.1223E-08
  3031.33    0.1027E-04    0.1027E-04    0.1232E-08
  3033.66    0.1035E-04    0.1034E-04    0.1240E-08
  3035.98    0.1042E-04    0.1042E-04    0.1249E-08
  3038.31    0.1049E-04    0.1049E-04    0.1258E-08
  3040.64    0.1057E-04    0.1057E-04    0.1267E-08
  3042.96    0.1064E-04    0.1064E-04    0.1276E-08
  3045.29    0.1072E-04    0.1072E-04    0.1285E-08
  3047.61    0.1080E-04    0.1079E-04    0.1294E-08
  3049.94    0.1087E-04    0.1087E-04    0.1303E-08
  3052.26    0.1095E-04    0.1095E-04    0.1313E-08
  3054.59    0.1103E-04    0.1103E-04    0.1322E-08
  3056.91    0.1111E-04    0.1111E-04    0.1332E-08
  3059.24    0.1119E-04    0.1119E-04    0.1342E-08
  3061.57    0.1128E-04    0.1127E-04    0.1351E-08
  3063.89    0.1136E-04    0.1136E-04    0.1361E-08
  3066.22    0.1144E-04    0.1144E-04    0.1371E-08
  3068.54    0.1153E-04    0.1153E-04    0.1381E-08
  3070.87    0.1161E-04    0.1161E-04    0.1392E-08
  3073.19    0.1170E-04    0.1170E-04    0.1402E-08
  3075.52    0.1179E-04    0.1179E-04    0.1413E-08
  3077.84    0.1188E-04    0.1188E-04    0.1423E-08
  3080.17    0.1197E-04    0.1197E-04    0.1434E-08
  3082.49    0.1206E-04    0.1206E-04    0.1445E-08
  3084.82    0.1215E-04    0.1215E-04    0.1456E-08
  3087.15    0.1224E-04    0.1224E-04    0.1467E-08
  3089.47    0.1234E-04    0.1234E-04    0.1478E-08
  3091.80    0.1243E-04    0.1243E-04    0.1490E-08
  3094.12    0.1253E-04    0.1253E-04    0.1501E-08
  3096.45    0.1263E-04    0.1263E-04    0.1513E-08
  3098.77    0.1273E-04    0.1273E-04    0.1525E-08
  3101.10    0.1283E-04    0.1283E-04    0.1537E-08
  3103.42    0.1293E-04    0.1293E-04    0.1549E-08
  3105.75    0.1303E-04    0.1303E-04    0.1561E-08
  3108.07    0.1314E-04    0.1313E-04    0.1574E-08
  3110.40    0.1324E-04    0.1324E-04    0.1586E-08
  3112.73    0.1335E-04    0.1335E-04    0.1599E-08
  3115.05    0.1345E-04    0.1345E-04    0.1612E-08
  3117.38    0.1356E-04    0.1356E-04    0.1625E-08
  3119.70    0.1367E-04    0.1367E-04    0.1638E-08
  3122.03    0.1379E-04    0.1378E-04    0.1651E-08
  3124.35    0.1390E-04    0.1390E-04    0.1665E-08
  3126.68    0.1401E-04    0.1401E-04    0.1678E-08
  3129.00    0.1413E-04    0.1413E-04    0.1692E-08
  3131.33    0.1425E-04    0.1424E-04    0.1706E-08
  3133.65    0.1437E-04    0.1436E-04    0.1720E-08
  3135.98    0.1449E-04    0.1448E-04    0.1735E-08
  3138.31    0.1461E-04    0.1461E-04    0.1749E-08
  3140.63    0.1473E-04    0.1473E-04    0.1764E-08
  3142.96    0.1486E-04    0.1485E-04    0.1779E-08
  3145.28    0.1498E-04    0.1498E-04    0.1794E-08
  3147.61    0.1511E-04    0.1511E-04    0.1810E-08
  3149.93    0.1524E-04    0.1524E-04    0.1825E-08
  3152.26    0.1537E-04    0.1537E-04    0.1841E-08
  3154.58    0.1551E-04    0.1551E-04    0.1857E-08
  3156.91    0.1564E-04    0.1564E-04    0.1873E-08
  3159.24    0.1578E-04    0.1578E-04    0.1889E-08
  3161.56    0.1592E-04    0.1592E-04    0.1906E-08
  3163.89    0.1606E-04    0.1606E-04    0.1923E-08
  3166.21    0.1620E-04    0.1620E-04    0.1940E-08
  3168.54    0.1635E-04    0.1634E-04    0.1957E-08
  3170.86    0.1649E-04    0.1649E-04    0.1975E-08
  3173.19    0.1664E-04    0.1664E-04    0.1993E-08
  3175.51    0.1679E-04    0.1679E-04    0.2011E-08
  3177.84    0.1695E-04    0.1694E-04    0.2029E-08
  3180.16    0.1710E-04    0.1710E-04    0.2047E-08
  3182.49    0.1726E-04    0.1726E-04    0.2066E-08
  3184.82    0.1742E-04    0.1741E-04    0.2085E-08
  3187.14    0.1758E-04    0.1758E-04    0.2104E-08
  3189.47    0.1774E-04    0.1774E-04    0.2124E-08
  3191.79    0.1791E-04    0.1791E-04    0.2144E-08
  3194.12    0.1808E-04    0.1807E-04    0.2164E-08
  3196.44    0.1825E-04    0.1825E-04    0.2184E-08
  3198.77    0.1842E-04    0.1842E-04    0.2205E-08
  3201.09    0.1860E-04    0.1859E-04    0.2226E-08
  3203.42    0.1878E-04    0.1877E-04    0.2247E-08
  3205.74    0.1896E-04    0.1895E-04    0.2269E-08
  3208.07    0.1914E-04    0.1914E-04    0.2291E-08
  3210.40    0.1933E-04    0.1932E-04    0.2313E-08
  3212.72    0.1952E-04    0.1951E-04    0.2336E-08
  3215.05    0.1971E-04    0.1971E-04    0.2359E-08
  3217.37    0.1990E-04    0.1990E-04    0.2382E-08
  3219.70    0.2010E-04    0.2010E-04    0.2406E-08
  3222.02    0.2030E-04    0.2030E-04    0.2430E-08
  3224.35    0.2051E-04    0.2050E-04    0.2454E-08
  3226.67    0.2071E-04    0.2071E-04    0.2479E-08
  3229.00    0.2092E-04    0.2092E-04    0.2504E-08
  3231.32    0.2114E-04    0.2113E-04    0.2530E-08
  3233.65    0.2135E-04    0.2135E-04    0.2556E-08
  3235.98    0.2157E-04    0.2157E-04    0.2582E-08
  3238.30    0.2180E-04    0.2179E-04    0.2609E-08
  3240.63    0.2202E-04    0.2202E-04    0.2636E-08
  3242.95    0.2225E-04    0.2225E-04    0.2663E-08
  3245.28    0.2249E-04    0.2249E-04    0.2691E-08
  3247.60    0.2273E-04    0.2272E-04    0.2720E-08
  3249.93    0.2297E-04    0.2297E-04    0.2749E-08
  3252.25    0.2321E-04    0.2321E-04    0.2778E-08
  3254.58    0.2346E-04    0.2346E-04    0.2808E-08
  3256.91    0.2372E-04    0.2372E-04    0.2838E-08
  3259.23    0.2398E-04    0.2397E-04    0.2869E-08
  3261.56    0.2424E-04    0.2424E-04    0.2901E-08
  3263.88    0.2451E-04    0.2450E-04    0.2933E-08
  3266.21    0.2478E-04    0.2477E-04    0.2965E-08
  3268.53    0.2505E-04    0.2505E-04    0.2998E-08
  3270.86    0.2533E-04    0.2533E-04    0.3032E-08
  3273.18    0.2562E-04    0.2562E-04    0.3066E-08
  3275.51    0.2591E-04    0.2591E-04    0.3100E-08
  3277.83    0.2621E-04    0.2620E-04    0.3136E-08
  3280.16    0.2651E-04    0.2650E-04    0.3172E-08
  3282.49    0.2681E-04    0.2681E-04    0.3208E-08
  3284.81    0.2712E-04    0.2712E-04    0.3245E-08
  3287.14    0.2744E-04    0.2744E-04    0.3283E-08
  3289.46    0.2776E-04    0.2776E-04    0.3322E-08
  3291.79    0.2809E-04    0.2809E-04    0.3361E-08
  3294.11    0.2842E-04    0.2842E-04    0.3401E-08
  3296.44    0.2876E-04    0.2876E-04    0.3442E-08
  3298.76    0.2911E-04    0.2911E-04    0.3483E-08
  3301.09    0.2946E-04    0.2946E-04    0.3525E-08
  3303.41    0.2982E-04    0.2982E-04    0.3568E-08
  3305.74    0.3019E-04    0.3018E-04    0.3612E-08
  3308.07    0.3056E-04    0.3056E-04    0.3656E-08
  3310.39    0.3094E-04    0.3093E-04    0.3702E-08
  3312.72    0.3133E-04    0.3132E-04    0.3748E-08
  3315.04    0.3172E-04    0.3172E-04    0.3795E-08
  3317.37    0.3212E-04    0.3212E-04    0.3843E-08
  3319.69    0.3253E-04    0.3253E-04    0.3892E-08
  3322.02    0.3295E-04    0.3294E-04    0.3942E-08
  3324.34    0.3337E-04    0.3337E-04    0.3993E-08
  3326.67    0.3381E-04    0.3380E-04    0.4045E-08
  3329.00    0.3425E-04    0.3424E-04    0.4098E-08
  3331.32    0.3470E-04    0.3470E-04    0.4152E-08
  3333.65    0.3516E-04    0.3516E-04    0.4207E-08
  3335.97    0.3563E-04    0.3563E-04    0.4263E-08
  3338.30    0.3611E-04    0.3610E-04    0.4320E-08
  3340.62    0.3660E-04    0.3659E-04    0.4379E-08
  3342.95    0.3710E-04    0.3709E-04    0.4438E-08
  3345.27    0.3761E-04    0.3760E-04    0.4499E-08
  3347.60    0.3813E-04    0.3812E-04    0.4561E-08
  3349.92    0.3866E-04    0.3865E-04    0.4625E-08
  3352.25    0.3920E-04    0.3919E-04    0.4690E-08
  3354.58    0.3975E-04    0.3975E-04    0.4756E-08
  3356.90    0.4032E-04    0.4031E-04    0.4824E-08
  3359.23    0.4090E-04    0.4089E-04    0.4893E-08
  3361.55    0.4149E-04    0.4148E-04    0.4964E-08
  3363.88    0.4209E-04    0.4209E-04    0.5036E-08
  3366.20    0.4271E-04    0.4270E-04    0.5110E-08
  3368.53    0.4334E-04    0.4333E-04    0.5185E-08
  3370.85    0.4399E-04    0.4398E-04    0.5262E-08
  3373.18    0.4465E-04    0.4464E-04    0.5341E-08
  3375.50    0.4532E-04    0.4531E-04    0.5422E-08
  3377.83    0.4601E-04    0.4600E-04    0.5505E-08
  3380.16    0.4672E-04    0.4671E-04    0.5589E-08
  3382.48    0.4744E-04    0.4743E-04    0.5676E-08
  3384.81    0.4818E-04    0.4817E-04    0.5764E-08
  3387.13    0.4894E-04    0.4893E-04    0.5855E-08
  3389.46    0.4971E-04    0.4971E-04    0.5948E-08
  3391.78    0.5051E-04    0.5050E-04    0.6043E-08
  3394.11    0.5132E-04    0.5132E-04    0.6140E-08
  3396.43    0.5216E-04    0.5215E-04    0.6240E-08
  3398.76    0.5301E-04    0.5301E-04    0.6342E-08
  3401.08    0.5389E-04    0.5388E-04    0.6447E-08
  3403.41    0.5479E-04    0.5478E-04    0.6555E-08
  3405.74    0.5571E-04    0.5570E-04    0.6665E-08
  3408.06    0.5665E-04    0.5665E-04    0.6778E-08
  3410.39    0.5762E-04    0.5762E-04    0.6894E-08
  3412.71    0.5862E-04    0.5861E-04    0.7013E-08
  3415.04    0.5964E-04    0.5963E-04    0.7135E-08
  3417.36    0.6069E-04    0.6068E-04    0.7261E-08
  3419.69    0.6176E-04    0.6176E-04    0.7390E-08
  3422.01    0.6287E-04    0.6286E-04    0.7522E-08
  3424.34    0.6401E-04    0.6400E-04    0.7658E-08
  3426.67    0.6517E-04    0.6517E-04    0.7797E-08
  3428.99    0.6637E-04    0.6637E-04    0.7941E-08
  3431.32    0.6761E-04    0.6760E-04    0.8089E-08
  3433.64    0.6888E-04    0.6887E-04    0.8241E-08
  3435.97    0.7018E-04    0.7017E-04    0.8397E-08
  3438.29    0.7152E-04    0.7152E-04    0.8557E-08
  3440.62    0.7291E-04    0.7290E-04    0.8723E-08
  3442.94    0.7433E-04    0.7432E-04    0.8893E-08
  3445.27    0.7580E-04    0.7579E-04    0.9069E-08
  3447.59    0.7731E-04    0.7730E-04    0.9249E-08
  3449.92    0.7886E-04    0.7885E-04    0.9436E-08
  3452.25    0.8047E-04    0.8046E-04    0.9628E-08
  3454.57    0.8212E-04    0.8211E-04    0.9825E-08
  3456.90    0.8383E-04    0.8382E-04    0.1003E-07
  3459.22    0.8559E-04    0.8558E-04    0.1024E-07
  3461.55    0.8740E-04    0.8739E-04    0.1046E-07
  3463.87    0.8928E-04    0.8927E-04    0.1068E-07
  3466.20    0.9122E-04    0.9121E-04    0.1091E-07
  3468.52    0.9322E-04    0.9321E-04    0.1115E-07
  3470.85    0.9529E-04    0.9528E-04    0.1140E-07
  3473.17    0.9743E-04    0.9742E-04    0.1166E-07
  3475.50    0.9964E-04    0.9963E-04    0.1192E-07
  3477.83    0.1019E-03    0.1019E-03    0.1220E-07
  3480.15    0.1043E-03    0.1043E-03    0.1248E-07
  3482.48    0.1068E-03    0.1068E-03    0.1278E-07
  3484.80    0.1093E-03    0.1093E-03    0.1308E-07
  3487.13    0.1119E-03    0.1119E-03    0.1340E-07
  3489.45    0.1147E-03    0.1147E-03    0.1372E-07
  3491.78    0.1175E-03    0.1175E-03    0.1406E-07
  3494.10    0.1205E-03    0.1205E-03    0.1442E-07
  3496.43    0.1235E-03    0.1235E-03    0.1478E-07
  3498.75    0.1267E-03    0.1267E-03    0.1516E-07
  3501.08    0.1300E-03    0.1300E-03    0.1556E-07
  3503.41    0.1335E-03    0.1334E-03    0.1597E-07
  3505.73    0.1370E-03    0.1370E-03    0.1640E-07
  3508.06    0.1408E-03    0.1408E-03    0.1685E-07
  3510.38    0.1447E-03    0.1446E-03    0.1731E-07
  3512.71    0.1487E-03    0.1487E-03    0.1780E-07
  3515.03    0.1529E-03    0.1529E-03    0.1830E-07
  3517.36    0.1573E-03    0.1573E-03    0.1883E-07
  3519.68    0.1619E-03    0.1619E-03    0.1938E-07
  3522.01    0.1667E-03    0.1667E-03    0.1996E-07
  3524.34    0.1718E-03    0.1718E-03    0.2056E-07
  3526.66    0.1770E-03    0.1770E-03    0.2119E-07
  3528.99    0.1826E-03    0.1825E-03    0.2185E-07
  3531.31    0.1883E-03    0.1883E-03    0.2254E-07
  3533.64    0.1944E-03    0.1944E-03    0.2327E-07
  3535.96    0.2008E-03    0.2007E-03    0.2403E-07
  3538.29    0.2074E-03    0.2074E-03    0.2483E-07
  3540.61    0.2145E-03    0.2144E-03    0.2567E-07
  3542.94    0.2219E-03    0.2218E-03    0.2656E-07
  3545.26    0.2297E-03    0.2296E-03    0.2749E-07
  3547.59    0.2379E-03    0.2378E-03    0.2847E-07
  3549.92    0.2465E-03    0.2465E-03    0.2951E-07
  3552.24    0.2557E-03    0.2557E-03    0.3061E-07
  3554.57    0.2654E-03    0.2653E-03    0.3176E-07
  3556.89    0.2756E-03    0.2756E-03    0.3299E-07
  3559.22    0.2865E-03    0.2864E-03    0.3429E-07
  3561.54    0.2980E-03    0.2980E-03    0.3567E-07
  3563.87    0.3102E-03    0.3102E-03    0.3714E-07
  3566.19    0.3232E-03    0.3232E-03    0.3870E-07
  3568.52    0.3371E-03    0.3371E-03    0.4036E-07
  3570.84    0.3519E-03    0.3519E-03    0.4213E-07
  3573.17    0.3677E-03    0.3677E-03    0.4402E-07
  3575.50    0.3846E-03    0.3846E-03    0.4605E-07
  3577.82    0.4027E-03    0.4027E-03    0.4821E-07
  3580.15    0.4221E-03    0.4221E-03    0.5054E-07
  3582.47    0.4430E-03    0.4430E-03    0.5304E-07
  3584.80    0.4655E-03    0.4654E-03    0.5573E-07
  3587.12    0.4898E-03    0.4897E-03    0.5864E-07
  3589.45    0.5160E-03    0.5159E-03    0.6178E-07
  3591.77    0.5444E-03    0.5443E-03    0.6519E-07
  3594.10    0.5752E-03    0.5752E-03    0.6888E-07
  3596.42    0.6088E-03    0.6088E-03    0.7290E-07
  3598.75    0.6455E-03    0.6454E-03    0.7729E-07
  3601.08    0.6855E-03    0.6854E-03    0.8209E-07
  3603.40    0.7295E-03    0.7294E-03    0.8736E-07
  3605.73    0.7778E-03    0.7777E-03    0.9315E-07
  3608.05    0.8311E-03    0.8310E-03    0.9954E-07
  3610.38    0.8902E-03    0.8901E-03    0.1066E-06
  3612.70    0.9558E-03    0.9557E-03    0.1145E-06
  3615.03    0.1029E-02    0.1029E-02    0.1232E-06
  3617.35    0.1111E-02    0.1111E-02    0.1330E-06
  3619.68    0.1203E-02    0.1203E-02    0.1441E-06
  3622.01    0.1307E-02    0.1307E-02    0.1566E-06
  3624.33    0.1425E-02    0.1425E-02    0.1707E-06
  3626.66    0.1560E-02    0.1560E-02    0.1869E-06
  3628.98    0.1715E-02    0.1715E-02    0.2054E-06
  3631.31    0.1894E-02    0.1894E-02    0.2269E-06
  3633.63    0.2102E-02    0.2102E-02    0.2518E-06
  3635.96    0.2346E-02    0.2346E-02    0.2810E-06
  3638.28    0.2634E-02    0.2634E-02    0.3156E-06
  3640.61    0.2978E-02    0.2978E-02    0.3568E-06
  3642.93    0.3392E-02    0.3391E-02    0.4063E-06
  3645.26    0.3895E-02    0.3894E-02    0.4666E-06
  3647.59    0.4514E-02    0.4513E-02    0.5408E-06
  3649.91    0.5285E-02    0.5284E-02    0.6332E-06
  3652.24    0.6257E-02    0.6256E-02    0.7497E-06
  3654.56    0.7500E-02    0.7499E-02    0.8986E-06
  3656.89    0.9109E-02    0.9108E-02    0.1091E-05
  3659.21    0.1121E-01    0.1121E-01    0.1344E-05
  3661.54    0.1398E-01    0.1398E-01    0.1675E-05
  3663.86    0.1759E-01    0.1758E-01    0.2107E-05
  3666.19    0.2214E-01    0.2214E-01    0.2653E-05
  3668.51    0.2742E-01    0.2742E-01    0.3286E-05
  3670.84    0.3250E-01    0.3250E-01    0.3895E-05
  3673.17    0.3563E-01    0.3563E-01    0.4270E-05
  3675.49    0.3525E-01    0.3525E-01    0.4224E-05
  3677.82    0.3158E-01    0.3157E-01    0.3784E-05
  3680.14    0.2634E-01    0.2634E-01    0.3156E-05
  3682.47    0.2116E-01    0.2116E-01    0.2536E-05
  3684.79    0.1681E-01    0.1681E-01    0.2014E-05
  3687.12    0.1339E-01    0.1339E-01    0.1604E-05
  3689.44    0.1078E-01    0.1078E-01    0.1291E-05
  3691.77    0.8794E-02    0.8792E-02    0.1054E-05
  3694.10    0.7275E-02    0.7274E-02    0.8715E-06
  3696.42    0.6100E-02    0.6099E-02    0.7307E-06
  3698.75    0.5181E-02    0.5180E-02    0.6206E-06
  3701.07    0.4452E-02    0.4451E-02    0.5332E-06
  3703.40    0.3867E-02    0.3866E-02    0.4631E-06
  3705.72    0.3392E-02    0.3392E-02    0.4062E-06
  3708.05    0.3004E-02    0.3003E-02    0.3596E-06
  3710.37    0.2682E-02    0.2682E-02    0.3211E-06
  3712.70    0.2414E-02    0.2414E-02    0.2890E-06
  3715.02    0.2190E-02    0.2190E-02    0.2620E-06
  3717.35    0.2001E-02    0.2000E-02    0.2393E-06
  3719.68    0.1841E-02    0.1840E-02    0.2201E-06
  3722.00    0.1705E-02    0.1705E-02    0.2039E-06
  3724.33    0.1591E-02    0.1591E-02    0.1901E-06
  3726.65    0.1494E-02    0.1494E-02    0.1785E-06
  3728.98    0.1413E-02    0.1413E-02    0.1688E-06
  3731.30    0.1346E-02    0.1346E-02    0.1607E-06
  3733.63    0.1292E-02    0.1292E-02    0.1542E-06
  3735.95    0.1250E-02    0.1250E-02    0.1490E-06
  3738.28    0.1219E-02    0.1219E-02    0.1453E-06
  3740.60    0.1200E-02    0.1200E-02    0.1429E-06
  3742.93    0.1192E-02    0.1191E-02    0.1418E-06
  3745.26    0.1196E-02    0.1195E-02    0.1421E-06
  3747.58    0.1213E-02    0.1212E-02    0.1441E-06
  3749.91    0.1244E-02    0.1244E-02    0.1477E-06
  3752.23    0.1293E-02    0.1293E-02    0.1534E-06
  3754.56    0.1362E-02    0.1362E-02    0.1615E-06
  3756.88    0.1457E-02    0.1457E-02    0.1725E-06
  3759.21    0.1582E-02    0.1582E-02    0.1872E-06
  3761.53    0.1748E-02    0.1748E-02    0.2066E-06
  3763.86    0.1966E-02    0.1966E-02    0.2322E-06
  3766.18    0.2254E-02    0.2254E-02    0.2661E-06
  3768.51    0.2637E-02    0.2636E-02    0.3110E-06
  3770.84    0.3145E-02    0.3144E-02    0.3707E-06
  3773.16    0.3820E-02    0.3819E-02    0.4500E-06
  3775.49    0.4703E-02    0.4703E-02    0.5539E-06
  3777.81    0.5810E-02    0.5810E-02    0.6841E-06
  3780.14    0.7064E-02    0.7063E-02    0.8315E-06
  3782.46    0.8201E-02    0.8200E-02    0.9652E-06
  3784.79    0.8784E-02    0.8783E-02    0.1034E-05
  3787.11    0.8505E-02    0.8504E-02    0.1001E-05
  3789.44    0.7509E-02    0.7508E-02    0.8837E-06
  3791.77    0.6234E-02    0.6233E-02    0.7337E-06
  3794.09    0.5026E-02    0.5025E-02    0.5916E-06
  3796.42    0.4027E-02    0.4027E-02    0.4742E-06
  3798.74    0.3248E-02    0.3248E-02    0.3825E-06
  3801.07    0.2652E-02    0.2652E-02    0.3124E-06
  3803.39    0.2197E-02    0.2197E-02    0.2589E-06
  3805.72    0.1846E-02    0.1846E-02    0.2176E-06
  3808.04    0.1573E-02    0.1573E-02    0.1854E-06
  3810.37    0.1357E-02    0.1357E-02    0.1600E-06
  3812.69    0.1184E-02    0.1183E-02    0.1396E-06
  3815.02    0.1043E-02    0.1043E-02    0.1231E-06
  3817.35    0.9273E-03    0.9271E-03    0.1094E-06
  3819.67    0.8311E-03    0.8310E-03    0.9812E-07
  3822.00    0.7502E-03    0.7501E-03    0.8860E-07
  3824.32    0.6816E-03    0.6815E-03    0.8052E-07
  3826.65    0.6229E-03    0.6228E-03    0.7360E-07
  3828.97    0.5721E-03    0.5721E-03    0.6762E-07
  3831.30    0.5280E-03    0.5279E-03    0.6242E-07
  3833.62    0.4893E-03    0.4893E-03    0.5786E-07
  3835.95    0.4552E-03    0.4552E-03    0.5384E-07
  3838.27    0.4250E-03    0.4249E-03    0.5028E-07
  3840.60    0.3980E-03    0.3980E-03    0.4710E-07
  3842.93    0.3739E-03    0.3738E-03    0.4425E-07
  3845.25    0.3521E-03    0.3521E-03    0.4169E-07
  3847.58    0.3325E-03    0.3324E-03    0.3937E-07
