
 ------------------------------------------------------------
     resonance       Raman Scattering Plot
 ------------------------------------------------------------
 Excitation wavelength  514.50 nm
 Convolution lineshape is lorentzian  
 FWHM   20.00  1/cm
 ------------------------------------------------------------
 ------------------------------------------------------------
 # of frequencies :     3
 ------------------------------------------------------------
#  freq [ 1/cm]  S-tot [a.u.]S-real [a.u.]  S-imag [a.u.]
 ------------------------------------------------------------
   1  1593.06        0.8360        0.8356        0.0003
   2  3680.51      115.8798      115.8667        0.0131
   3  3784.84       28.5170       28.5137        0.0032
 ------------------------------------------------------------
  1535.37    0.2980E-04    0.2979E-04    0.1076E-07
  1537.68    0.3219E-04    0.3218E-04    0.1164E-07
  1540.00    0.3488E-04    0.3487E-04    0.1264E-07
  1542.31    0.3793E-04    0.3792E-04    0.1376E-07
  1544.63    0.4140E-04    0.4139E-04    0.1504E-07
  1546.94    0.4538E-04    0.4536E-04    0.1651E-07
  1549.26    0.4996E-04    0.4994E-04    0.1820E-07
  1551.57    0.5527E-04    0.5525E-04    0.2016E-07
  1553.88    0.6148E-04    0.6145E-04    0.2245E-07
  1556.20    0.6878E-04    0.6875E-04    0.2515E-07
  1558.51    0.7744E-04    0.7741E-04    0.2835E-07
  1560.83    0.8782E-04    0.8779E-04    0.3218E-07
  1563.14    0.1004E-03    0.1003E-03    0.3682E-07
  1565.45    0.1157E-03    0.1157E-03    0.4248E-07
  1567.77    0.1347E-03    0.1347E-03    0.4950E-07
  1570.08    0.1585E-03    0.1585E-03    0.5828E-07
  1572.40    0.1887E-03    0.1886E-03    0.6943E-07
  1574.71    0.2275E-03    0.2274E-03    0.8377E-07
  1577.02    0.2780E-03    0.2779E-03    0.1024E-06
  1579.34    0.3442E-03    0.3441E-03    0.1268E-06
  1581.65    0.4309E-03    0.4308E-03    0.1589E-06
  1583.97    0.5426E-03    0.5424E-03    0.2001E-06
  1586.28    0.6789E-03    0.6786E-03    0.2504E-06
  1588.59    0.8259E-03    0.8256E-03    0.3047E-06
  1590.91    0.9465E-03    0.9461E-03    0.3492E-06
  1593.22    0.9898E-03    0.9894E-03    0.3652E-06
  1595.54    0.9327E-03    0.9324E-03    0.3442E-06
  1597.85    0.8052E-03    0.8049E-03    0.2971E-06
  1600.17    0.6580E-03    0.6578E-03    0.2427E-06
  1602.48    0.5249E-03    0.5247E-03    0.1936E-06
  1604.79    0.4170E-03    0.4169E-03    0.1537E-06
  1607.11    0.3335E-03    0.3334E-03    0.1229E-06
  1609.42    0.2699E-03    0.2698E-03    0.9941E-07
  1611.74    0.2213E-03    0.2213E-03    0.8147E-07
  1614.05    0.1839E-03    0.1839E-03    0.6766E-07
  1616.36    0.1548E-03    0.1547E-03    0.5689E-07
  1618.68    0.1318E-03    0.1317E-03    0.4840E-07
  1620.99    0.1134E-03    0.1133E-03    0.4160E-07
  1623.31    0.9847E-04    0.9844E-04    0.3610E-07
  1625.62    0.8627E-04    0.8624E-04    0.3159E-07
  1627.93    0.7617E-04    0.7614E-04    0.2786E-07
  1630.25    0.6772E-04    0.6770E-04    0.2474E-07
  1632.56    0.6060E-04    0.6057E-04    0.2211E-07
  1634.88    0.5454E-04    0.5452E-04    0.1987E-07
  1637.19    0.4934E-04    0.4933E-04    0.1795E-07
  1639.50    0.4486E-04    0.4484E-04    0.1630E-07
  1641.82    0.4097E-04    0.4095E-04    0.1486E-07
  1644.13    0.3757E-04    0.3755E-04    0.1360E-07
  1646.45    0.3458E-04    0.3456E-04    0.1250E-07
  1648.76    0.3194E-04    0.3192E-04    0.1152E-07
  1651.08    0.2959E-04    0.2958E-04    0.1066E-07
  1653.39    0.2751E-04    0.2750E-04    0.9886E-08
  1655.70    0.2564E-04    0.2563E-04    0.9195E-08
  1658.02    0.2396E-04    0.2395E-04    0.8575E-08
  1660.33    0.2245E-04    0.2244E-04    0.8016E-08
  1662.65    0.2108E-04    0.2108E-04    0.7511E-08
  1664.96    0.1984E-04    0.1983E-04    0.7052E-08
  1667.27    0.1871E-04    0.1871E-04    0.6634E-08
  1669.59    0.1768E-04    0.1768E-04    0.6253E-08
  1671.90    0.1674E-04    0.1673E-04    0.5905E-08
  1674.22    0.1588E-04    0.1587E-04    0.5585E-08
  1676.53    0.1508E-04    0.1508E-04    0.5291E-08
  1678.84    0.1435E-04    0.1434E-04    0.5020E-08
  1681.16    0.1367E-04    0.1367E-04    0.4769E-08
  1683.47    0.1305E-04    0.1304E-04    0.4538E-08
  1685.79    0.1247E-04    0.1246E-04    0.4323E-08
  1688.10    0.1193E-04    0.1192E-04    0.4123E-08
  1690.42    0.1143E-04    0.1142E-04    0.3938E-08
  1692.73    0.1096E-04    0.1096E-04    0.3765E-08
  1695.04    0.1053E-04    0.1052E-04    0.3603E-08
  1697.36    0.1012E-04    0.1012E-04    0.3453E-08
  1699.67    0.9738E-05    0.9734E-05    0.3311E-08
  1701.99    0.9381E-05    0.9378E-05    0.3179E-08
  1704.30    0.9046E-05    0.9043E-05    0.3054E-08
  1706.61    0.8731E-05    0.8728E-05    0.2937E-08
  1708.93    0.8435E-05    0.8432E-05    0.2827E-08
  1711.24    0.8156E-05    0.8153E-05    0.2724E-08
  1713.56    0.7893E-05    0.7890E-05    0.2626E-08
  1715.87    0.7645E-05    0.7642E-05    0.2534E-08
  1718.18    0.7410E-05    0.7408E-05    0.2446E-08
  1720.50    0.7188E-05    0.7186E-05    0.2364E-08
  1722.81    0.6978E-05    0.6976E-05    0.2286E-08
  1725.13    0.6779E-05    0.6777E-05    0.2211E-08
  1727.44    0.6590E-05    0.6588E-05    0.2141E-08
  1729.75    0.6411E-05    0.6409E-05    0.2074E-08
  1732.07    0.6241E-05    0.6239E-05    0.2011E-08
  1734.38    0.6079E-05    0.6077E-05    0.1950E-08
  1736.70    0.5925E-05    0.5923E-05    0.1893E-08
  1739.01    0.5779E-05    0.5777E-05    0.1838E-08
  1741.33    0.5639E-05    0.5637E-05    0.1785E-08
  1743.64    0.5506E-05    0.5504E-05    0.1736E-08
  1745.95    0.5378E-05    0.5377E-05    0.1688E-08
  1748.27    0.5257E-05    0.5255E-05    0.1642E-08
  1750.58    0.5141E-05    0.5139E-05    0.1599E-08
  1752.90    0.5030E-05    0.5029E-05    0.1557E-08
  1755.21    0.4924E-05    0.4923E-05    0.1517E-08
  1757.52    0.4823E-05    0.4821E-05    0.1479E-08
  1759.84    0.4725E-05    0.4724E-05    0.1442E-08
  1762.15    0.4632E-05    0.4631E-05    0.1407E-08
  1764.47    0.4543E-05    0.4542E-05    0.1374E-08
  1766.78    0.4457E-05    0.4456E-05    0.1341E-08
  1769.09    0.4375E-05    0.4374E-05    0.1310E-08
  1771.41    0.4296E-05    0.4295E-05    0.1280E-08
  1773.72    0.4220E-05    0.4219E-05    0.1252E-08
  1776.04    0.4148E-05    0.4146E-05    0.1224E-08
  1778.35    0.4078E-05    0.4076E-05    0.1197E-08
  1780.67    0.4010E-05    0.4009E-05    0.1172E-08
  1782.98    0.3946E-05    0.3944E-05    0.1147E-08
  1785.29    0.3883E-05    0.3882E-05    0.1123E-08
  1787.61    0.3823E-05    0.3822E-05    0.1100E-08
  1789.92    0.3765E-05    0.3764E-05    0.1078E-08
  1792.24    0.3710E-05    0.3709E-05    0.1057E-08
  1794.55    0.3656E-05    0.3655E-05    0.1036E-08
  1796.86    0.3604E-05    0.3603E-05    0.1017E-08
  1799.18    0.3554E-05    0.3553E-05    0.9974E-09
  1801.49    0.3506E-05    0.3505E-05    0.9788E-09
  1803.81    0.3460E-05    0.3459E-05    0.9609E-09
  1806.12    0.3415E-05    0.3414E-05    0.9435E-09
  1808.43    0.3372E-05    0.3371E-05    0.9268E-09
  1810.75    0.3330E-05    0.3329E-05    0.9105E-09
  1813.06    0.3289E-05    0.3288E-05    0.8948E-09
  1815.38    0.3250E-05    0.3249E-05    0.8796E-09
  1817.69    0.3212E-05    0.3212E-05    0.8649E-09
  1820.00    0.3176E-05    0.3175E-05    0.8506E-09
  1822.32    0.3141E-05    0.3140E-05    0.8368E-09
  1824.63    0.3106E-05    0.3106E-05    0.8233E-09
  1826.95    0.3073E-05    0.3073E-05    0.8103E-09
  1829.26    0.3041E-05    0.3041E-05    0.7977E-09
  1831.58    0.3011E-05    0.3010E-05    0.7855E-09
  1833.89    0.2981E-05    0.2980E-05    0.7736E-09
  1836.20    0.2952E-05    0.2951E-05    0.7621E-09
  1838.52    0.2923E-05    0.2923E-05    0.7509E-09
  1840.83    0.2896E-05    0.2895E-05    0.7400E-09
  1843.15    0.2870E-05    0.2869E-05    0.7295E-09
  1845.46    0.2844E-05    0.2844E-05    0.7192E-09
  1847.77    0.2820E-05    0.2819E-05    0.7092E-09
  1850.09    0.2796E-05    0.2795E-05    0.6995E-09
  1852.40    0.2772E-05    0.2772E-05    0.6901E-09
  1854.72    0.2750E-05    0.2749E-05    0.6810E-09
  1857.03    0.2728E-05    0.2727E-05    0.6721E-09
  1859.34    0.2707E-05    0.2706E-05    0.6634E-09
  1861.66    0.2686E-05    0.2686E-05    0.6549E-09
  1863.97    0.2666E-05    0.2666E-05    0.6467E-09
  1866.29    0.2647E-05    0.2646E-05    0.6387E-09
  1868.60    0.2628E-05    0.2628E-05    0.6310E-09
  1870.91    0.2610E-05    0.2609E-05    0.6234E-09
  1873.23    0.2592E-05    0.2592E-05    0.6160E-09
  1875.54    0.2575E-05    0.2575E-05    0.6088E-09
  1877.86    0.2559E-05    0.2558E-05    0.6018E-09
  1880.17    0.2543E-05    0.2542E-05    0.5950E-09
  1882.49    0.2527E-05    0.2526E-05    0.5883E-09
  1884.80    0.2512E-05    0.2511E-05    0.5819E-09
  1887.11    0.2497E-05    0.2496E-05    0.5755E-09
  1889.43    0.2483E-05    0.2482E-05    0.5694E-09
  1891.74    0.2469E-05    0.2468E-05    0.5634E-09
  1894.06    0.2455E-05    0.2455E-05    0.5575E-09
  1896.37    0.2442E-05    0.2442E-05    0.5518E-09
  1898.68    0.2430E-05    0.2429E-05    0.5462E-09
  1901.00    0.2417E-05    0.2417E-05    0.5408E-09
  1903.31    0.2405E-05    0.2405E-05    0.5355E-09
  1905.63    0.2394E-05    0.2393E-05    0.5303E-09
  1907.94    0.2383E-05    0.2382E-05    0.5252E-09
  1910.25    0.2372E-05    0.2371E-05    0.5203E-09
  1912.57    0.2361E-05    0.2361E-05    0.5155E-09
  1914.88    0.2351E-05    0.2351E-05    0.5108E-09
  1917.20    0.2341E-05    0.2341E-05    0.5062E-09
  1919.51    0.2331E-05    0.2331E-05    0.5017E-09
  1921.83    0.2322E-05    0.2322E-05    0.4973E-09
  1924.14    0.2313E-05    0.2313E-05    0.4930E-09
  1926.45    0.2304E-05    0.2304E-05    0.4888E-09
  1928.77    0.2296E-05    0.2295E-05    0.4848E-09
  1931.08    0.2288E-05    0.2287E-05    0.4808E-09
  1933.40    0.2280E-05    0.2279E-05    0.4769E-09
  1935.71    0.2272E-05    0.2271E-05    0.4731E-09
  1938.02    0.2264E-05    0.2264E-05    0.4693E-09
  1940.34    0.2257E-05    0.2257E-05    0.4657E-09
  1942.65    0.2250E-05    0.2250E-05    0.4621E-09
  1944.97    0.2243E-05    0.2243E-05    0.4586E-09
  1947.28    0.2237E-05    0.2236E-05    0.4552E-09
  1949.59    0.2230E-05    0.2230E-05    0.4519E-09
  1951.91    0.2224E-05    0.2224E-05    0.4487E-09
  1954.22    0.2218E-05    0.2218E-05    0.4455E-09
  1956.54    0.2213E-05    0.2212E-05    0.4424E-09
  1958.85    0.2207E-05    0.2207E-05    0.4393E-09
  1961.16    0.2202E-05    0.2201E-05    0.4364E-09
  1963.48    0.2197E-05    0.2196E-05    0.4335E-09
  1965.79    0.2192E-05    0.2191E-05    0.4306E-09
  1968.11    0.2187E-05    0.2187E-05    0.4278E-09
  1970.42    0.2182E-05    0.2182E-05    0.4251E-09
  1972.74    0.2178E-05    0.2177E-05    0.4225E-09
  1975.05    0.2174E-05    0.2173E-05    0.4199E-09
  1977.36    0.2170E-05    0.2169E-05    0.4173E-09
  1979.68    0.2166E-05    0.2165E-05    0.4148E-09
  1981.99    0.2162E-05    0.2161E-05    0.4124E-09
  1984.31    0.2158E-05    0.2158E-05    0.4100E-09
  1986.62    0.2155E-05    0.2154E-05    0.4077E-09
  1988.93    0.2151E-05    0.2151E-05    0.4054E-09
  1991.25    0.2148E-05    0.2148E-05    0.4032E-09
  1993.56    0.2145E-05    0.2145E-05    0.4010E-09
  1995.88    0.2142E-05    0.2142E-05    0.3989E-09
  1998.19    0.2140E-05    0.2139E-05    0.3968E-09
  2000.50    0.2137E-05    0.2137E-05    0.3947E-09
  2002.82    0.2134E-05    0.2134E-05    0.3927E-09
  2005.13    0.2132E-05    0.2132E-05    0.3908E-09
  2007.45    0.2130E-05    0.2129E-05    0.3889E-09
  2009.76    0.2128E-05    0.2127E-05    0.3870E-09
  2012.07    0.2126E-05    0.2125E-05    0.3852E-09
  2014.39    0.2124E-05    0.2124E-05    0.3834E-09
  2016.70    0.2122E-05    0.2122E-05    0.3816E-09
  2019.02    0.2121E-05    0.2120E-05    0.3799E-09
  2021.33    0.2119E-05    0.2119E-05    0.3783E-09
  2023.65    0.2118E-05    0.2117E-05    0.3766E-09
  2025.96    0.2116E-05    0.2116E-05    0.3750E-09
  2028.27    0.2115E-05    0.2115E-05    0.3735E-09
  2030.59    0.2114E-05    0.2114E-05    0.3719E-09
  2032.90    0.2113E-05    0.2113E-05    0.3704E-09
  2035.22    0.2112E-05    0.2112E-05    0.3690E-09
  2037.53    0.2111E-05    0.2111E-05    0.3675E-09
  2039.84    0.2111E-05    0.2110E-05    0.3661E-09
  2042.16    0.2110E-05    0.2110E-05    0.3648E-09
  2044.47    0.2110E-05    0.2109E-05    0.3634E-09
  2046.79    0.2109E-05    0.2109E-05    0.3621E-09
  2049.10    0.2109E-05    0.2109E-05    0.3609E-09
  2051.41    0.2109E-05    0.2109E-05    0.3596E-09
  2053.73    0.2109E-05    0.2108E-05    0.3584E-09
  2056.04    0.2109E-05    0.2108E-05    0.3572E-09
  2058.36    0.2109E-05    0.2109E-05    0.3561E-09
  2060.67    0.2109E-05    0.2109E-05    0.3549E-09
  2062.99    0.2109E-05    0.2109E-05    0.3538E-09
  2065.30    0.2110E-05    0.2109E-05    0.3527E-09
  2067.61    0.2110E-05    0.2110E-05    0.3517E-09
  2069.93    0.2111E-05    0.2110E-05    0.3507E-09
  2072.24    0.2111E-05    0.2111E-05    0.3496E-09
  2074.56    0.2112E-05    0.2111E-05    0.3487E-09
  2076.87    0.2113E-05    0.2112E-05    0.3477E-09
  2079.18    0.2113E-05    0.2113E-05    0.3468E-09
  2081.50    0.2114E-05    0.2114E-05    0.3459E-09
  2083.81    0.2115E-05    0.2115E-05    0.3450E-09
  2086.13    0.2116E-05    0.2116E-05    0.3441E-09
  2088.44    0.2117E-05    0.2117E-05    0.3433E-09
  2090.75    0.2119E-05    0.2118E-05    0.3425E-09
  2093.07    0.2120E-05    0.2120E-05    0.3417E-09
  2095.38    0.2121E-05    0.2121E-05    0.3409E-09
  2097.70    0.2123E-05    0.2122E-05    0.3401E-09
  2100.01    0.2124E-05    0.2124E-05    0.3394E-09
  2102.32    0.2126E-05    0.2125E-05    0.3387E-09
  2104.64    0.2127E-05    0.2127E-05    0.3380E-09
  2106.95    0.2129E-05    0.2129E-05    0.3373E-09
  2109.27    0.2131E-05    0.2131E-05    0.3367E-09
  2111.58    0.2133E-05    0.2132E-05    0.3360E-09
  2113.90    0.2135E-05    0.2134E-05    0.3354E-09
  2116.21    0.2137E-05    0.2136E-05    0.3348E-09
  2118.52    0.2139E-05    0.2138E-05    0.3342E-09
  2120.84    0.2141E-05    0.2140E-05    0.3337E-09
  2123.15    0.2143E-05    0.2143E-05    0.3331E-09
  2125.47    0.2145E-05    0.2145E-05    0.3326E-09
  2127.78    0.2147E-05    0.2147E-05    0.3321E-09
  2130.09    0.2150E-05    0.2149E-05    0.3316E-09
  2132.41    0.2152E-05    0.2152E-05    0.3311E-09
  2134.72    0.2155E-05    0.2154E-05    0.3306E-09
  2137.04    0.2157E-05    0.2157E-05    0.3302E-09
  2139.35    0.2160E-05    0.2159E-05    0.3298E-09
  2141.66    0.2162E-05    0.2162E-05    0.3294E-09
  2143.98    0.2165E-05    0.2165E-05    0.3290E-09
  2146.29    0.2168E-05    0.2168E-05    0.3286E-09
  2148.61    0.2171E-05    0.2170E-05    0.3282E-09
  2150.92    0.2174E-05    0.2173E-05    0.3279E-09
  2153.23    0.2177E-05    0.2176E-05    0.3275E-09
  2155.55    0.2180E-05    0.2179E-05    0.3272E-09
  2157.86    0.2183E-05    0.2182E-05    0.3269E-09
  2160.18    0.2186E-05    0.2185E-05    0.3266E-09
  2162.49    0.2189E-05    0.2189E-05    0.3263E-09
  2164.81    0.2192E-05    0.2192E-05    0.3261E-09
  2167.12    0.2195E-05    0.2195E-05    0.3258E-09
  2169.43    0.2199E-05    0.2199E-05    0.3256E-09
  2171.75    0.2202E-05    0.2202E-05    0.3254E-09
  2174.06    0.2206E-05    0.2205E-05    0.3252E-09
  2176.38    0.2209E-05    0.2209E-05    0.3250E-09
  2178.69    0.2213E-05    0.2212E-05    0.3248E-09
  2181.00    0.2216E-05    0.2216E-05    0.3246E-09
  2183.32    0.2220E-05    0.2220E-05    0.3245E-09
  2185.63    0.2224E-05    0.2223E-05    0.3243E-09
  2187.95    0.2228E-05    0.2227E-05    0.3242E-09
  2190.26    0.2231E-05    0.2231E-05    0.3241E-09
  2192.57    0.2235E-05    0.2235E-05    0.3240E-09
  2194.89    0.2239E-05    0.2239E-05    0.3239E-09
  2197.20    0.2243E-05    0.2243E-05    0.3238E-09
  2199.52    0.2247E-05    0.2247E-05    0.3237E-09
  2201.83    0.2251E-05    0.2251E-05    0.3237E-09
  2204.15    0.2255E-05    0.2255E-05    0.3236E-09
  2206.46    0.2260E-05    0.2259E-05    0.3236E-09
  2208.77    0.2264E-05    0.2264E-05    0.3236E-09
  2211.09    0.2268E-05    0.2268E-05    0.3235E-09
  2213.40    0.2272E-05    0.2272E-05    0.3235E-09
  2215.72    0.2277E-05    0.2277E-05    0.3236E-09
  2218.03    0.2281E-05    0.2281E-05    0.3236E-09
  2220.34    0.2286E-05    0.2286E-05    0.3236E-09
  2222.66    0.2290E-05    0.2290E-05    0.3237E-09
  2224.97    0.2295E-05    0.2295E-05    0.3237E-09
  2227.29    0.2300E-05    0.2299E-05    0.3238E-09
  2229.60    0.2304E-05    0.2304E-05    0.3239E-09
  2231.91    0.2309E-05    0.2309E-05    0.3239E-09
  2234.23    0.2314E-05    0.2314E-05    0.3240E-09
  2236.54    0.2319E-05    0.2318E-05    0.3241E-09
  2238.86    0.2324E-05    0.2323E-05    0.3243E-09
  2241.17    0.2329E-05    0.2328E-05    0.3244E-09
  2243.48    0.2334E-05    0.2333E-05    0.3245E-09
  2245.80    0.2339E-05    0.2338E-05    0.3247E-09
  2248.11    0.2344E-05    0.2343E-05    0.3248E-09
  2250.43    0.2349E-05    0.2349E-05    0.3250E-09
  2252.74    0.2354E-05    0.2354E-05    0.3252E-09
  2255.06    0.2359E-05    0.2359E-05    0.3254E-09
  2257.37    0.2365E-05    0.2364E-05    0.3256E-09
  2259.68    0.2370E-05    0.2370E-05    0.3258E-09
  2262.00    0.2375E-05    0.2375E-05    0.3260E-09
  2264.31    0.2381E-05    0.2380E-05    0.3262E-09
  2266.63    0.2386E-05    0.2386E-05    0.3265E-09
  2268.94    0.2392E-05    0.2391E-05    0.3267E-09
  2271.25    0.2397E-05    0.2397E-05    0.3270E-09
  2273.57    0.2403E-05    0.2403E-05    0.3272E-09
  2275.88    0.2409E-05    0.2408E-05    0.3275E-09
  2278.20    0.2414E-05    0.2414E-05    0.3278E-09
  2280.51    0.2420E-05    0.2420E-05    0.3281E-09
  2282.82    0.2426E-05    0.2426E-05    0.3284E-09
  2285.14    0.2432E-05    0.2432E-05    0.3287E-09
  2287.45    0.2438E-05    0.2438E-05    0.3290E-09
  2289.77    0.2444E-05    0.2444E-05    0.3294E-09
  2292.08    0.2450E-05    0.2450E-05    0.3297E-09
  2294.39    0.2456E-05    0.2456E-05    0.3301E-09
  2296.71    0.2462E-05    0.2462E-05    0.3304E-09
  2299.02    0.2468E-05    0.2468E-05    0.3308E-09
  2301.34    0.2475E-05    0.2474E-05    0.3312E-09
  2303.65    0.2481E-05    0.2481E-05    0.3316E-09
  2305.97    0.2487E-05    0.2487E-05    0.3319E-09
  2308.28    0.2494E-05    0.2493E-05    0.3324E-09
  2310.59    0.2500E-05    0.2500E-05    0.3328E-09
  2312.91    0.2507E-05    0.2506E-05    0.3332E-09
  2315.22    0.2513E-05    0.2513E-05    0.3336E-09
  2317.54    0.2520E-05    0.2519E-05    0.3341E-09
  2319.85    0.2526E-05    0.2526E-05    0.3345E-09
  2322.16    0.2533E-05    0.2533E-05    0.3350E-09
  2324.48    0.2540E-05    0.2539E-05    0.3354E-09
  2326.79    0.2547E-05    0.2546E-05    0.3359E-09
  2329.11    0.2553E-05    0.2553E-05    0.3364E-09
  2331.42    0.2560E-05    0.2560E-05    0.3369E-09
  2333.73    0.2567E-05    0.2567E-05    0.3374E-09
  2336.05    0.2574E-05    0.2574E-05    0.3379E-09
  2338.36    0.2581E-05    0.2581E-05    0.3384E-09
  2340.68    0.2588E-05    0.2588E-05    0.3389E-09
  2342.99    0.2596E-05    0.2595E-05    0.3395E-09
  2345.31    0.2603E-05    0.2602E-05    0.3400E-09
  2347.62    0.2610E-05    0.2610E-05    0.3405E-09
  2349.93    0.2617E-05    0.2617E-05    0.3411E-09
  2352.25    0.2625E-05    0.2624E-05    0.3417E-09
  2354.56    0.2632E-05    0.2632E-05    0.3422E-09
  2356.88    0.2640E-05    0.2639E-05    0.3428E-09
  2359.19    0.2647E-05    0.2647E-05    0.3434E-09
  2361.50    0.2655E-05    0.2654E-05    0.3440E-09
  2363.82    0.2662E-05    0.2662E-05    0.3446E-09
  2366.13    0.2670E-05    0.2670E-05    0.3453E-09
  2368.45    0.2678E-05    0.2678E-05    0.3459E-09
  2370.76    0.2686E-05    0.2685E-05    0.3465E-09
  2373.07    0.2694E-05    0.2693E-05    0.3472E-09
  2375.39    0.2701E-05    0.2701E-05    0.3478E-09
  2377.70    0.2709E-05    0.2709E-05    0.3485E-09
  2380.02    0.2717E-05    0.2717E-05    0.3491E-09
  2382.33    0.2726E-05    0.2725E-05    0.3498E-09
  2384.64    0.2734E-05    0.2733E-05    0.3505E-09
  2386.96    0.2742E-05    0.2741E-05    0.3512E-09
  2389.27    0.2750E-05    0.2750E-05    0.3519E-09
  2391.59    0.2758E-05    0.2758E-05    0.3526E-09
  2393.90    0.2767E-05    0.2766E-05    0.3533E-09
  2396.22    0.2775E-05    0.2775E-05    0.3541E-09
  2398.53    0.2784E-05    0.2783E-05    0.3548E-09
  2400.84    0.2792E-05    0.2792E-05    0.3555E-09
  2403.16    0.2801E-05    0.2800E-05    0.3563E-09
  2405.47    0.2809E-05    0.2809E-05    0.3571E-09
  2407.79    0.2818E-05    0.2818E-05    0.3578E-09
  2410.10    0.2827E-05    0.2827E-05    0.3586E-09
  2412.41    0.2836E-05    0.2835E-05    0.3594E-09
  2414.73    0.2845E-05    0.2844E-05    0.3602E-09
  2417.04    0.2854E-05    0.2853E-05    0.3610E-09
  2419.36    0.2863E-05    0.2862E-05    0.3618E-09
  2421.67    0.2872E-05    0.2871E-05    0.3626E-09
  2423.98    0.2881E-05    0.2880E-05    0.3635E-09
  2426.30    0.2890E-05    0.2890E-05    0.3643E-09
  2428.61    0.2899E-05    0.2899E-05    0.3651E-09
  2430.93    0.2909E-05    0.2908E-05    0.3660E-09
  2433.24    0.2918E-05    0.2918E-05    0.3669E-09
  2435.56    0.2927E-05    0.2927E-05    0.3677E-09
  2437.87    0.2937E-05    0.2936E-05    0.3686E-09
  2440.18    0.2946E-05    0.2946E-05    0.3695E-09
  2442.50    0.2956E-05    0.2956E-05    0.3704E-09
  2444.81    0.2966E-05    0.2965E-05    0.3713E-09
  2447.13    0.2975E-05    0.2975E-05    0.3722E-09
  2449.44    0.2985E-05    0.2985E-05    0.3732E-09
  2451.75    0.2995E-05    0.2995E-05    0.3741E-09
  2454.07    0.3005E-05    0.3005E-05    0.3750E-09
  2456.38    0.3015E-05    0.3015E-05    0.3760E-09
  2458.70    0.3025E-05    0.3025E-05    0.3770E-09
  2461.01    0.3035E-05    0.3035E-05    0.3779E-09
  2463.32    0.3046E-05    0.3045E-05    0.3789E-09
  2465.64    0.3056E-05    0.3055E-05    0.3799E-09
  2467.95    0.3066E-05    0.3066E-05    0.3809E-09
  2470.27    0.3077E-05    0.3076E-05    0.3819E-09
  2472.58    0.3087E-05    0.3087E-05    0.3829E-09
  2474.89    0.3098E-05    0.3097E-05    0.3840E-09
  2477.21    0.3108E-05    0.3108E-05    0.3850E-09
  2479.52    0.3119E-05    0.3119E-05    0.3860E-09
  2481.84    0.3130E-05    0.3129E-05    0.3871E-09
  2484.15    0.3140E-05    0.3140E-05    0.3881E-09
  2486.47    0.3151E-05    0.3151E-05    0.3892E-09
  2488.78    0.3162E-05    0.3162E-05    0.3903E-09
  2491.09    0.3173E-05    0.3173E-05    0.3914E-09
  2493.41    0.3185E-05    0.3184E-05    0.3925E-09
  2495.72    0.3196E-05    0.3195E-05    0.3936E-09
  2498.04    0.3207E-05    0.3207E-05    0.3947E-09
  2500.35    0.3218E-05    0.3218E-05    0.3958E-09
  2502.66    0.3230E-05    0.3229E-05    0.3970E-09
  2504.98    0.3241E-05    0.3241E-05    0.3981E-09
  2507.29    0.3253E-05    0.3252E-05    0.3993E-09
  2509.61    0.3264E-05    0.3264E-05    0.4005E-09
  2511.92    0.3276E-05    0.3276E-05    0.4016E-09
  2514.23    0.3288E-05    0.3288E-05    0.4028E-09
  2516.55    0.3300E-05    0.3299E-05    0.4040E-09
  2518.86    0.3312E-05    0.3311E-05    0.4052E-09
  2521.18    0.3324E-05    0.3323E-05    0.4064E-09
  2523.49    0.3336E-05    0.3335E-05    0.4077E-09
  2525.80    0.3348E-05    0.3348E-05    0.4089E-09
  2528.12    0.3360E-05    0.3360E-05    0.4102E-09
  2530.43    0.3373E-05    0.3372E-05    0.4114E-09
  2532.75    0.3385E-05    0.3385E-05    0.4127E-09
  2535.06    0.3398E-05    0.3397E-05    0.4140E-09
  2537.38    0.3410E-05    0.3410E-05    0.4153E-09
  2539.69    0.3423E-05    0.3422E-05    0.4166E-09
  2542.00    0.3436E-05    0.3435E-05    0.4179E-09
  2544.32    0.3448E-05    0.3448E-05    0.4192E-09
  2546.63    0.3461E-05    0.3461E-05    0.4205E-09
  2548.95    0.3474E-05    0.3474E-05    0.4219E-09
  2551.26    0.3487E-05    0.3487E-05    0.4232E-09
  2553.57    0.3501E-05    0.3500E-05    0.4246E-09
  2555.89    0.3514E-05    0.3513E-05    0.4259E-09
  2558.20    0.3527E-05    0.3527E-05    0.4273E-09
  2560.52    0.3541E-05    0.3540E-05    0.4287E-09
  2562.83    0.3554E-05    0.3554E-05    0.4301E-09
  2565.14    0.3568E-05    0.3567E-05    0.4315E-09
  2567.46    0.3582E-05    0.3581E-05    0.4330E-09
  2569.77    0.3595E-05    0.3595E-05    0.4344E-09
  2572.09    0.3609E-05    0.3609E-05    0.4359E-09
  2574.40    0.3623E-05    0.3623E-05    0.4373E-09
  2576.72    0.3637E-05    0.3637E-05    0.4388E-09
  2579.03    0.3652E-05    0.3651E-05    0.4403E-09
  2581.34    0.3666E-05    0.3665E-05    0.4418E-09
  2583.66    0.3680E-05    0.3680E-05    0.4433E-09
  2585.97    0.3695E-05    0.3694E-05    0.4448E-09
  2588.29    0.3709E-05    0.3709E-05    0.4464E-09
  2590.60    0.3724E-05    0.3723E-05    0.4479E-09
  2592.91    0.3739E-05    0.3738E-05    0.4495E-09
  2595.23    0.3754E-05    0.3753E-05    0.4510E-09
  2597.54    0.3768E-05    0.3768E-05    0.4526E-09
  2599.86    0.3784E-05    0.3783E-05    0.4542E-09
  2602.17    0.3799E-05    0.3798E-05    0.4558E-09
  2604.48    0.3814E-05    0.3814E-05    0.4574E-09
  2606.80    0.3829E-05    0.3829E-05    0.4591E-09
  2609.11    0.3845E-05    0.3844E-05    0.4607E-09
  2611.43    0.3860E-05    0.3860E-05    0.4624E-09
  2613.74    0.3876E-05    0.3876E-05    0.4640E-09
  2616.05    0.3892E-05    0.3891E-05    0.4657E-09
  2618.37    0.3908E-05    0.3907E-05    0.4674E-09
  2620.68    0.3924E-05    0.3923E-05    0.4691E-09
  2623.00    0.3940E-05    0.3939E-05    0.4708E-09
  2625.31    0.3956E-05    0.3956E-05    0.4726E-09
  2627.63    0.3972E-05    0.3972E-05    0.4743E-09
  2629.94    0.3989E-05    0.3988E-05    0.4761E-09
  2632.25    0.4005E-05    0.4005E-05    0.4778E-09
  2634.57    0.4022E-05    0.4022E-05    0.4796E-09
  2636.88    0.4039E-05    0.4038E-05    0.4814E-09
  2639.20    0.4056E-05    0.4055E-05    0.4832E-09
  2641.51    0.4073E-05    0.4072E-05    0.4851E-09
  2643.82    0.4090E-05    0.4089E-05    0.4869E-09
  2646.14    0.4107E-05    0.4107E-05    0.4888E-09
  2648.45    0.4125E-05    0.4124E-05    0.4906E-09
  2650.77    0.4142E-05    0.4142E-05    0.4925E-09
  2653.08    0.4160E-05    0.4159E-05    0.4944E-09
  2655.39    0.4177E-05    0.4177E-05    0.4964E-09
  2657.71    0.4195E-05    0.4195E-05    0.4983E-09
  2660.02    0.4213E-05    0.4213E-05    0.5002E-09
  2662.34    0.4231E-05    0.4231E-05    0.5022E-09
  2664.65    0.4250E-05    0.4249E-05    0.5042E-09
  2666.96    0.4268E-05    0.4268E-05    0.5061E-09
  2669.28    0.4287E-05    0.4286E-05    0.5082E-09
  2671.59    0.4305E-05    0.4305E-05    0.5102E-09
  2673.91    0.4324E-05    0.4323E-05    0.5122E-09
  2676.22    0.4343E-05    0.4342E-05    0.5143E-09
  2678.54    0.4362E-05    0.4361E-05    0.5163E-09
  2680.85    0.4381E-05    0.4381E-05    0.5184E-09
  2683.16    0.4400E-05    0.4400E-05    0.5205E-09
  2685.48    0.4420E-05    0.4419E-05    0.5226E-09
  2687.79    0.4439E-05    0.4439E-05    0.5248E-09
  2690.11    0.4459E-05    0.4459E-05    0.5269E-09
  2692.42    0.4479E-05    0.4478E-05    0.5291E-09
  2694.73    0.4499E-05    0.4498E-05    0.5313E-09
  2697.05    0.4519E-05    0.4519E-05    0.5335E-09
  2699.36    0.4539E-05    0.4539E-05    0.5357E-09
  2701.68    0.4560E-05    0.4559E-05    0.5379E-09
  2703.99    0.4580E-05    0.4580E-05    0.5402E-09
  2706.30    0.4601E-05    0.4601E-05    0.5424E-09
  2708.62    0.4622E-05    0.4622E-05    0.5447E-09
  2710.93    0.4643E-05    0.4643E-05    0.5470E-09
  2713.25    0.4664E-05    0.4664E-05    0.5493E-09
  2715.56    0.4686E-05    0.4685E-05    0.5517E-09
  2717.88    0.4707E-05    0.4707E-05    0.5540E-09
  2720.19    0.4729E-05    0.4728E-05    0.5564E-09
  2722.50    0.4751E-05    0.4750E-05    0.5588E-09
  2724.82    0.4773E-05    0.4772E-05    0.5612E-09
  2727.13    0.4795E-05    0.4794E-05    0.5636E-09
  2729.45    0.4817E-05    0.4817E-05    0.5661E-09
  2731.76    0.4840E-05    0.4839E-05    0.5686E-09
  2734.07    0.4862E-05    0.4862E-05    0.5711E-09
  2736.39    0.4885E-05    0.4884E-05    0.5736E-09
  2738.70    0.4908E-05    0.4907E-05    0.5761E-09
  2741.02    0.4931E-05    0.4931E-05    0.5786E-09
  2743.33    0.4955E-05    0.4954E-05    0.5812E-09
  2745.64    0.4978E-05    0.4977E-05    0.5838E-09
  2747.96    0.5002E-05    0.5001E-05    0.5864E-09
  2750.27    0.5026E-05    0.5025E-05    0.5890E-09
  2752.59    0.5050E-05    0.5049E-05    0.5917E-09
  2754.90    0.5074E-05    0.5073E-05    0.5944E-09
  2757.21    0.5098E-05    0.5098E-05    0.5971E-09
  2759.53    0.5123E-05    0.5122E-05    0.5998E-09
  2761.84    0.5148E-05    0.5147E-05    0.6025E-09
  2764.16    0.5173E-05    0.5172E-05    0.6053E-09
  2766.47    0.5198E-05    0.5197E-05    0.6081E-09
  2768.79    0.5223E-05    0.5222E-05    0.6109E-09
  2771.10    0.5249E-05    0.5248E-05    0.6137E-09
  2773.41    0.5274E-05    0.5274E-05    0.6165E-09
  2775.73    0.5300E-05    0.5300E-05    0.6194E-09
  2778.04    0.5326E-05    0.5326E-05    0.6223E-09
  2780.36    0.5353E-05    0.5352E-05    0.6252E-09
  2782.67    0.5379E-05    0.5379E-05    0.6282E-09
  2784.98    0.5406E-05    0.5405E-05    0.6311E-09
  2787.30    0.5433E-05    0.5432E-05    0.6341E-09
  2789.61    0.5460E-05    0.5459E-05    0.6371E-09
  2791.93    0.5487E-05    0.5487E-05    0.6402E-09
  2794.24    0.5515E-05    0.5514E-05    0.6432E-09
  2796.55    0.5543E-05    0.5542E-05    0.6463E-09
  2798.87    0.5571E-05    0.5570E-05    0.6494E-09
  2801.18    0.5599E-05    0.5599E-05    0.6526E-09
  2803.50    0.5628E-05    0.5627E-05    0.6557E-09
  2805.81    0.5656E-05    0.5656E-05    0.6589E-09
  2808.12    0.5685E-05    0.5685E-05    0.6621E-09
  2810.44    0.5714E-05    0.5714E-05    0.6654E-09
  2812.75    0.5744E-05    0.5743E-05    0.6686E-09
  2815.07    0.5773E-05    0.5773E-05    0.6719E-09
  2817.38    0.5803E-05    0.5803E-05    0.6753E-09
  2819.70    0.5833E-05    0.5833E-05    0.6786E-09
  2822.01    0.5864E-05    0.5863E-05    0.6820E-09
  2824.32    0.5894E-05    0.5894E-05    0.6854E-09
  2826.64    0.5925E-05    0.5925E-05    0.6889E-09
  2828.95    0.5956E-05    0.5956E-05    0.6923E-09
  2831.27    0.5988E-05    0.5987E-05    0.6958E-09
  2833.58    0.6019E-05    0.6019E-05    0.6993E-09
  2835.89    0.6051E-05    0.6051E-05    0.7029E-09
  2838.21    0.6083E-05    0.6083E-05    0.7065E-09
  2840.52    0.6116E-05    0.6115E-05    0.7101E-09
  2842.84    0.6148E-05    0.6148E-05    0.7137E-09
  2845.15    0.6181E-05    0.6181E-05    0.7174E-09
  2847.46    0.6215E-05    0.6214E-05    0.7211E-09
  2849.78    0.6248E-05    0.6247E-05    0.7249E-09
  2852.09    0.6282E-05    0.6281E-05    0.7286E-09
  2854.41    0.6316E-05    0.6315E-05    0.7324E-09
  2856.72    0.6350E-05    0.6349E-05    0.7363E-09
  2859.04    0.6385E-05    0.6384E-05    0.7402E-09
  2861.35    0.6420E-05    0.6419E-05    0.7441E-09
  2863.66    0.6455E-05    0.6454E-05    0.7480E-09
  2865.98    0.6490E-05    0.6490E-05    0.7520E-09
  2868.29    0.6526E-05    0.6526E-05    0.7560E-09
  2870.61    0.6562E-05    0.6562E-05    0.7600E-09
  2872.92    0.6599E-05    0.6598E-05    0.7641E-09
  2875.23    0.6636E-05    0.6635E-05    0.7682E-09
  2877.55    0.6673E-05    0.6672E-05    0.7724E-09
  2879.86    0.6710E-05    0.6709E-05    0.7765E-09
  2882.18    0.6748E-05    0.6747E-05    0.7808E-09
  2884.49    0.6786E-05    0.6785E-05    0.7850E-09
  2886.80    0.6824E-05    0.6823E-05    0.7893E-09
  2889.12    0.6863E-05    0.6862E-05    0.7937E-09
  2891.43    0.6902E-05    0.6901E-05    0.7980E-09
  2893.75    0.6941E-05    0.6940E-05    0.8024E-09
  2896.06    0.6981E-05    0.6980E-05    0.8069E-09
  2898.37    0.7021E-05    0.7020E-05    0.8114E-09
  2900.69    0.7061E-05    0.7061E-05    0.8159E-09
  2903.00    0.7102E-05    0.7101E-05    0.8205E-09
  2905.32    0.7143E-05    0.7143E-05    0.8251E-09
  2907.63    0.7185E-05    0.7184E-05    0.8298E-09
  2909.95    0.7227E-05    0.7226E-05    0.8345E-09
  2912.26    0.7269E-05    0.7268E-05    0.8392E-09
  2914.57    0.7312E-05    0.7311E-05    0.8440E-09
  2916.89    0.7355E-05    0.7354E-05    0.8488E-09
  2919.20    0.7398E-05    0.7397E-05    0.8537E-09
  2921.52    0.7442E-05    0.7441E-05    0.8586E-09
  2923.83    0.7486E-05    0.7485E-05    0.8636E-09
  2926.14    0.7531E-05    0.7530E-05    0.8686E-09
  2928.46    0.7576E-05    0.7575E-05    0.8737E-09
  2930.77    0.7621E-05    0.7620E-05    0.8788E-09
  2933.09    0.7667E-05    0.7666E-05    0.8839E-09
  2935.40    0.7713E-05    0.7712E-05    0.8891E-09
  2937.71    0.7760E-05    0.7759E-05    0.8944E-09
  2940.03    0.7807E-05    0.7806E-05    0.8997E-09
  2942.34    0.7855E-05    0.7854E-05    0.9050E-09
  2944.66    0.7903E-05    0.7902E-05    0.9104E-09
  2946.97    0.7951E-05    0.7950E-05    0.9159E-09
  2949.28    0.8000E-05    0.7999E-05    0.9214E-09
  2951.60    0.8049E-05    0.8049E-05    0.9269E-09
  2953.91    0.8099E-05    0.8098E-05    0.9325E-09
  2956.23    0.8150E-05    0.8149E-05    0.9382E-09
  2958.54    0.8200E-05    0.8199E-05    0.9439E-09
  2960.86    0.8252E-05    0.8251E-05    0.9497E-09
  2963.17    0.8303E-05    0.8303E-05    0.9555E-09
  2965.48    0.8356E-05    0.8355E-05    0.9614E-09
  2967.80    0.8409E-05    0.8408E-05    0.9673E-09
  2970.11    0.8462E-05    0.8461E-05    0.9733E-09
  2972.43    0.8516E-05    0.8515E-05    0.9794E-09
  2974.74    0.8570E-05    0.8569E-05    0.9855E-09
  2977.05    0.8625E-05    0.8624E-05    0.9917E-09
  2979.37    0.8680E-05    0.8679E-05    0.9979E-09
  2981.68    0.8736E-05    0.8735E-05    0.1004E-08
  2984.00    0.8793E-05    0.8792E-05    0.1011E-08
  2986.31    0.8850E-05    0.8849E-05    0.1017E-08
  2988.62    0.8907E-05    0.8906E-05    0.1024E-08
  2990.94    0.8966E-05    0.8964E-05    0.1030E-08
  2993.25    0.9024E-05    0.9023E-05    0.1037E-08
  2995.57    0.9084E-05    0.9083E-05    0.1043E-08
  2997.88    0.9144E-05    0.9143E-05    0.1050E-08
  3000.20    0.9204E-05    0.9203E-05    0.1057E-08
  3002.51    0.9265E-05    0.9264E-05    0.1064E-08
  3004.82    0.9327E-05    0.9326E-05    0.1071E-08
  3007.14    0.9390E-05    0.9388E-05    0.1078E-08
  3009.45    0.9453E-05    0.9452E-05    0.1085E-08
  3011.77    0.9516E-05    0.9515E-05    0.1092E-08
  3014.08    0.9581E-05    0.9580E-05    0.1099E-08
  3016.39    0.9646E-05    0.9645E-05    0.1107E-08
  3018.71    0.9711E-05    0.9710E-05    0.1114E-08
  3021.02    0.9778E-05    0.9777E-05    0.1122E-08
  3023.34    0.9845E-05    0.9844E-05    0.1129E-08
  3025.65    0.9913E-05    0.9911E-05    0.1137E-08
  3027.96    0.9981E-05    0.9980E-05    0.1145E-08
  3030.28    0.1005E-04    0.1005E-04    0.1152E-08
  3032.59    0.1012E-04    0.1012E-04    0.1160E-08
  3034.91    0.1019E-04    0.1019E-04    0.1168E-08
  3037.22    0.1026E-04    0.1026E-04    0.1176E-08
  3039.53    0.1033E-04    0.1033E-04    0.1185E-08
  3041.85    0.1041E-04    0.1041E-04    0.1193E-08
  3044.16    0.1048E-04    0.1048E-04    0.1201E-08
  3046.48    0.1056E-04    0.1055E-04    0.1210E-08
  3048.79    0.1063E-04    0.1063E-04    0.1218E-08
  3051.11    0.1071E-04    0.1071E-04    0.1227E-08
  3053.42    0.1078E-04    0.1078E-04    0.1235E-08
  3055.73    0.1086E-04    0.1086E-04    0.1244E-08
  3058.05    0.1094E-04    0.1094E-04    0.1253E-08
  3060.36    0.1102E-04    0.1102E-04    0.1262E-08
  3062.68    0.1110E-04    0.1110E-04    0.1271E-08
  3064.99    0.1118E-04    0.1118E-04    0.1280E-08
  3067.30    0.1126E-04    0.1126E-04    0.1290E-08
  3069.62    0.1135E-04    0.1135E-04    0.1299E-08
  3071.93    0.1143E-04    0.1143E-04    0.1309E-08
  3074.25    0.1152E-04    0.1152E-04    0.1318E-08
  3076.56    0.1160E-04    0.1160E-04    0.1328E-08
  3078.87    0.1169E-04    0.1169E-04    0.1338E-08
  3081.19    0.1178E-04    0.1178E-04    0.1348E-08
  3083.50    0.1187E-04    0.1187E-04    0.1358E-08
  3085.82    0.1196E-04    0.1196E-04    0.1368E-08
  3088.13    0.1205E-04    0.1205E-04    0.1378E-08
  3090.45    0.1214E-04    0.1214E-04    0.1389E-08
  3092.76    0.1223E-04    0.1223E-04    0.1399E-08
  3095.07    0.1233E-04    0.1233E-04    0.1410E-08
  3097.39    0.1242E-04    0.1242E-04    0.1421E-08
  3099.70    0.1252E-04    0.1252E-04    0.1432E-08
  3102.02    0.1262E-04    0.1262E-04    0.1443E-08
  3104.33    0.1272E-04    0.1271E-04    0.1454E-08
  3106.64    0.1282E-04    0.1281E-04    0.1465E-08
  3108.96    0.1292E-04    0.1292E-04    0.1477E-08
  3111.27    0.1302E-04    0.1302E-04    0.1488E-08
  3113.59    0.1312E-04    0.1312E-04    0.1500E-08
  3115.90    0.1323E-04    0.1323E-04    0.1512E-08
  3118.21    0.1333E-04    0.1333E-04    0.1524E-08
  3120.53    0.1344E-04    0.1344E-04    0.1536E-08
  3122.84    0.1355E-04    0.1355E-04    0.1548E-08
  3125.16    0.1366E-04    0.1366E-04    0.1561E-08
  3127.47    0.1377E-04    0.1377E-04    0.1573E-08
  3129.78    0.1389E-04    0.1388E-04    0.1586E-08
  3132.10    0.1400E-04    0.1400E-04    0.1599E-08
  3134.41    0.1412E-04    0.1411E-04    0.1612E-08
  3136.73    0.1423E-04    0.1423E-04    0.1625E-08
  3139.04    0.1435E-04    0.1435E-04    0.1639E-08
  3141.36    0.1447E-04    0.1447E-04    0.1652E-08
  3143.67    0.1459E-04    0.1459E-04    0.1666E-08
  3145.98    0.1472E-04    0.1471E-04    0.1680E-08
  3148.30    0.1484E-04    0.1484E-04    0.1694E-08
  3150.61    0.1497E-04    0.1497E-04    0.1708E-08
  3152.93    0.1509E-04    0.1509E-04    0.1723E-08
  3155.24    0.1522E-04    0.1522E-04    0.1738E-08
  3157.55    0.1536E-04    0.1535E-04    0.1753E-08
  3159.87    0.1549E-04    0.1549E-04    0.1768E-08
  3162.18    0.1562E-04    0.1562E-04    0.1783E-08
  3164.50    0.1576E-04    0.1576E-04    0.1798E-08
  3166.81    0.1590E-04    0.1590E-04    0.1814E-08
  3169.12    0.1604E-04    0.1604E-04    0.1830E-08
  3171.44    0.1618E-04    0.1618E-04    0.1846E-08
  3173.75    0.1633E-04    0.1632E-04    0.1862E-08
  3176.07    0.1647E-04    0.1647E-04    0.1879E-08
  3178.38    0.1662E-04    0.1662E-04    0.1896E-08
  3180.69    0.1677E-04    0.1677E-04    0.1913E-08
  3183.01    0.1692E-04    0.1692E-04    0.1930E-08
  3185.32    0.1708E-04    0.1707E-04    0.1947E-08
  3187.64    0.1723E-04    0.1723E-04    0.1965E-08
  3189.95    0.1739E-04    0.1739E-04    0.1983E-08
  3192.27    0.1755E-04    0.1755E-04    0.2001E-08
  3194.58    0.1771E-04    0.1771E-04    0.2020E-08
  3196.89    0.1788E-04    0.1788E-04    0.2038E-08
  3199.21    0.1805E-04    0.1805E-04    0.2057E-08
  3201.52    0.1822E-04    0.1822E-04    0.2077E-08
  3203.84    0.1839E-04    0.1839E-04    0.2096E-08
  3206.15    0.1856E-04    0.1856E-04    0.2116E-08
  3208.46    0.1874E-04    0.1874E-04    0.2136E-08
  3210.78    0.1892E-04    0.1892E-04    0.2156E-08
  3213.09    0.1910E-04    0.1910E-04    0.2177E-08
  3215.41    0.1929E-04    0.1929E-04    0.2198E-08
  3217.72    0.1948E-04    0.1948E-04    0.2219E-08
  3220.03    0.1967E-04    0.1967E-04    0.2241E-08
  3222.35    0.1986E-04    0.1986E-04    0.2263E-08
  3224.66    0.2006E-04    0.2006E-04    0.2285E-08
  3226.98    0.2026E-04    0.2026E-04    0.2308E-08
  3229.29    0.2046E-04    0.2046E-04    0.2331E-08
  3231.61    0.2067E-04    0.2066E-04    0.2354E-08
  3233.92    0.2088E-04    0.2087E-04    0.2378E-08
  3236.23    0.2109E-04    0.2109E-04    0.2402E-08
  3238.55    0.2130E-04    0.2130E-04    0.2426E-08
  3240.86    0.2152E-04    0.2152E-04    0.2451E-08
  3243.18    0.2174E-04    0.2174E-04    0.2476E-08
  3245.49    0.2197E-04    0.2197E-04    0.2502E-08
  3247.80    0.2220E-04    0.2220E-04    0.2528E-08
  3250.12    0.2243E-04    0.2243E-04    0.2554E-08
  3252.43    0.2267E-04    0.2266E-04    0.2581E-08
  3254.75    0.2291E-04    0.2290E-04    0.2608E-08
  3257.06    0.2315E-04    0.2315E-04    0.2636E-08
  3259.37    0.2340E-04    0.2340E-04    0.2664E-08
  3261.69    0.2365E-04    0.2365E-04    0.2692E-08
  3264.00    0.2391E-04    0.2390E-04    0.2721E-08
  3266.32    0.2417E-04    0.2416E-04    0.2751E-08
  3268.63    0.2443E-04    0.2443E-04    0.2781E-08
  3270.94    0.2470E-04    0.2470E-04    0.2811E-08
  3273.26    0.2497E-04    0.2497E-04    0.2842E-08
  3275.57    0.2525E-04    0.2525E-04    0.2874E-08
  3277.89    0.2553E-04    0.2553E-04    0.2906E-08
  3280.20    0.2582E-04    0.2582E-04    0.2938E-08
  3282.52    0.2611E-04    0.2611E-04    0.2972E-08
  3284.83    0.2641E-04    0.2641E-04    0.3005E-08
  3287.14    0.2671E-04    0.2671E-04    0.3040E-08
  3289.46    0.2702E-04    0.2702E-04    0.3075E-08
  3291.77    0.2734E-04    0.2733E-04    0.3110E-08
  3294.09    0.2765E-04    0.2765E-04    0.3146E-08
  3296.40    0.2798E-04    0.2798E-04    0.3183E-08
  3298.71    0.2831E-04    0.2831E-04    0.3220E-08
  3301.03    0.2865E-04    0.2864E-04    0.3259E-08
  3303.34    0.2899E-04    0.2898E-04    0.3297E-08
  3305.66    0.2934E-04    0.2933E-04    0.3337E-08
  3307.97    0.2969E-04    0.2969E-04    0.3377E-08
  3310.28    0.3005E-04    0.3005E-04    0.3418E-08
  3312.60    0.3042E-04    0.3042E-04    0.3460E-08
  3314.91    0.3080E-04    0.3079E-04    0.3502E-08
  3317.23    0.3118E-04    0.3117E-04    0.3546E-08
  3319.54    0.3157E-04    0.3156E-04    0.3590E-08
  3321.85    0.3196E-04    0.3196E-04    0.3635E-08
  3324.17    0.3237E-04    0.3236E-04    0.3681E-08
  3326.48    0.3278E-04    0.3277E-04    0.3727E-08
  3328.80    0.3320E-04    0.3319E-04    0.3775E-08
  3331.11    0.3363E-04    0.3362E-04    0.3823E-08
  3333.43    0.3406E-04    0.3406E-04    0.3873E-08
  3335.74    0.3451E-04    0.3450E-04    0.3923E-08
  3338.05    0.3496E-04    0.3496E-04    0.3975E-08
  3340.37    0.3542E-04    0.3542E-04    0.4027E-08
  3342.68    0.3590E-04    0.3589E-04    0.4081E-08
  3345.00    0.3638E-04    0.3637E-04    0.4136E-08
  3347.31    0.3687E-04    0.3687E-04    0.4191E-08
  3349.62    0.3737E-04    0.3737E-04    0.4248E-08
  3351.94    0.3788E-04    0.3788E-04    0.4306E-08
  3354.25    0.3841E-04    0.3840E-04    0.4366E-08
  3356.57    0.3894E-04    0.3894E-04    0.4426E-08
  3358.88    0.3949E-04    0.3948E-04    0.4488E-08
  3361.19    0.4004E-04    0.4004E-04    0.4551E-08
  3363.51    0.4061E-04    0.4061E-04    0.4616E-08
  3365.82    0.4119E-04    0.4119E-04    0.4681E-08
  3368.14    0.4179E-04    0.4178E-04    0.4749E-08
  3370.45    0.4239E-04    0.4239E-04    0.4818E-08
  3372.77    0.4301E-04    0.4301E-04    0.4888E-08
  3375.08    0.4365E-04    0.4364E-04    0.4960E-08
  3377.39    0.4429E-04    0.4429E-04    0.5033E-08
  3379.71    0.4496E-04    0.4495E-04    0.5108E-08
  3382.02    0.4563E-04    0.4563E-04    0.5185E-08
  3384.34    0.4633E-04    0.4632E-04    0.5264E-08
  3386.65    0.4704E-04    0.4703E-04    0.5344E-08
  3388.96    0.4776E-04    0.4776E-04    0.5427E-08
  3391.28    0.4851E-04    0.4850E-04    0.5511E-08
  3393.59    0.4927E-04    0.4926E-04    0.5597E-08
  3395.91    0.5005E-04    0.5004E-04    0.5686E-08
  3398.22    0.5084E-04    0.5084E-04    0.5776E-08
  3400.53    0.5166E-04    0.5165E-04    0.5869E-08
  3402.85    0.5250E-04    0.5249E-04    0.5964E-08
  3405.16    0.5335E-04    0.5335E-04    0.6061E-08
  3407.48    0.5423E-04    0.5423E-04    0.6161E-08
  3409.79    0.5513E-04    0.5513E-04    0.6263E-08
  3412.10    0.5606E-04    0.5605E-04    0.6368E-08
  3414.42    0.5701E-04    0.5700E-04    0.6475E-08
  3416.73    0.5798E-04    0.5797E-04    0.6586E-08
  3419.05    0.5898E-04    0.5897E-04    0.6699E-08
  3421.36    0.6000E-04    0.5999E-04    0.6815E-08
  3423.68    0.6105E-04    0.6104E-04    0.6934E-08
  3425.99    0.6213E-04    0.6212E-04    0.7056E-08
  3428.30    0.6324E-04    0.6323E-04    0.7182E-08
  3430.62    0.6437E-04    0.6437E-04    0.7311E-08
  3432.93    0.6554E-04    0.6553E-04    0.7444E-08
  3435.25    0.6674E-04    0.6674E-04    0.7580E-08
  3437.56    0.6798E-04    0.6797E-04    0.7720E-08
  3439.87    0.6925E-04    0.6924E-04    0.7864E-08
  3442.19    0.7056E-04    0.7055E-04    0.8012E-08
  3444.50    0.7190E-04    0.7189E-04    0.8165E-08
  3446.82    0.7328E-04    0.7327E-04    0.8322E-08
  3449.13    0.7471E-04    0.7470E-04    0.8483E-08
  3451.44    0.7617E-04    0.7616E-04    0.8650E-08
  3453.76    0.7768E-04    0.7767E-04    0.8821E-08
  3456.07    0.7924E-04    0.7923E-04    0.8998E-08
  3458.39    0.8084E-04    0.8083E-04    0.9180E-08
  3460.70    0.8250E-04    0.8249E-04    0.9367E-08
  3463.01    0.8420E-04    0.8419E-04    0.9561E-08
  3465.33    0.8596E-04    0.8595E-04    0.9760E-08
  3467.64    0.8778E-04    0.8777E-04    0.9966E-08
  3469.96    0.8965E-04    0.8964E-04    0.1018E-07
  3472.27    0.9158E-04    0.9157E-04    0.1040E-07
  3474.59    0.9358E-04    0.9357E-04    0.1062E-07
  3476.90    0.9565E-04    0.9564E-04    0.1086E-07
  3479.21    0.9779E-04    0.9777E-04    0.1110E-07
  3481.53    0.9999E-04    0.9998E-04    0.1135E-07
  3483.84    0.1023E-03    0.1023E-03    0.1161E-07
  3486.16    0.1046E-03    0.1046E-03    0.1188E-07
  3488.47    0.1071E-03    0.1071E-03    0.1216E-07
  3490.78    0.1096E-03    0.1096E-03    0.1245E-07
  3493.10    0.1123E-03    0.1122E-03    0.1274E-07
  3495.41    0.1150E-03    0.1150E-03    0.1305E-07
  3497.73    0.1178E-03    0.1178E-03    0.1337E-07
  3500.04    0.1207E-03    0.1207E-03    0.1371E-07
  3502.35    0.1238E-03    0.1238E-03    0.1405E-07
  3504.67    0.1270E-03    0.1269E-03    0.1441E-07
  3506.98    0.1303E-03    0.1302E-03    0.1479E-07
  3509.30    0.1337E-03    0.1337E-03    0.1517E-07
  3511.61    0.1372E-03    0.1372E-03    0.1558E-07
  3513.93    0.1409E-03    0.1409E-03    0.1600E-07
  3516.24    0.1448E-03    0.1448E-03    0.1643E-07
  3518.55    0.1488E-03    0.1488E-03    0.1689E-07
  3520.87    0.1530E-03    0.1530E-03    0.1737E-07
  3523.18    0.1574E-03    0.1574E-03    0.1786E-07
  3525.50    0.1619E-03    0.1619E-03    0.1838E-07
  3527.81    0.1667E-03    0.1667E-03    0.1892E-07
  3530.12    0.1717E-03    0.1717E-03    0.1949E-07
  3532.44    0.1769E-03    0.1769E-03    0.2008E-07
  3534.75    0.1824E-03    0.1823E-03    0.2070E-07
  3537.07    0.1881E-03    0.1881E-03    0.2135E-07
  3539.38    0.1941E-03    0.1941E-03    0.2203E-07
  3541.69    0.2004E-03    0.2004E-03    0.2274E-07
  3544.01    0.2070E-03    0.2070E-03    0.2349E-07
  3546.32    0.2139E-03    0.2139E-03    0.2428E-07
  3548.64    0.2212E-03    0.2212E-03    0.2511E-07
  3550.95    0.2289E-03    0.2289E-03    0.2598E-07
  3553.26    0.2370E-03    0.2370E-03    0.2690E-07
  3555.58    0.2455E-03    0.2455E-03    0.2787E-07
  3557.89    0.2546E-03    0.2545E-03    0.2889E-07
  3560.21    0.2641E-03    0.2640E-03    0.2997E-07
  3562.52    0.2742E-03    0.2741E-03    0.3111E-07
  3564.84    0.2848E-03    0.2848E-03    0.3232E-07
  3567.15    0.2961E-03    0.2961E-03    0.3361E-07
  3569.46    0.3082E-03    0.3081E-03    0.3497E-07
  3571.78    0.3209E-03    0.3209E-03    0.3642E-07
  3574.09    0.3345E-03    0.3345E-03    0.3796E-07
  3576.41    0.3490E-03    0.3489E-03    0.3960E-07
  3578.72    0.3644E-03    0.3644E-03    0.4136E-07
  3581.03    0.3809E-03    0.3809E-03    0.4323E-07
  3583.35    0.3986E-03    0.3986E-03    0.4523E-07
  3585.66    0.4176E-03    0.4175E-03    0.4738E-07
  3587.98    0.4379E-03    0.4378E-03    0.4969E-07
  3590.29    0.4598E-03    0.4597E-03    0.5217E-07
  3592.60    0.4834E-03    0.4833E-03    0.5485E-07
  3594.92    0.5088E-03    0.5088E-03    0.5774E-07
  3597.23    0.5364E-03    0.5363E-03    0.6086E-07
  3599.55    0.5662E-03    0.5662E-03    0.6425E-07
  3601.86    0.5987E-03    0.5986E-03    0.6794E-07
  3604.18    0.6340E-03    0.6340E-03    0.7195E-07
  3606.49    0.6726E-03    0.6726E-03    0.7633E-07
  3608.80    0.7149E-03    0.7148E-03    0.8112E-07
  3611.12    0.7613E-03    0.7612E-03    0.8639E-07
  3613.43    0.8124E-03    0.8123E-03    0.9219E-07
  3615.75    0.8689E-03    0.8688E-03    0.9860E-07
  3618.06    0.9315E-03    0.9314E-03    0.1057E-06
  3620.37    0.1001E-02    0.1001E-02    0.1136E-06
  3622.69    0.1079E-02    0.1079E-02    0.1224E-06
  3625.00    0.1166E-02    0.1166E-02    0.1323E-06
  3627.32    0.1264E-02    0.1264E-02    0.1435E-06
  3629.63    0.1376E-02    0.1376E-02    0.1561E-06
  3631.94    0.1502E-02    0.1502E-02    0.1705E-06
  3634.26    0.1647E-02    0.1647E-02    0.1869E-06
  3636.57    0.1814E-02    0.1813E-02    0.2058E-06
  3638.89    0.2007E-02    0.2007E-02    0.2277E-06
  3641.20    0.2232E-02    0.2232E-02    0.2533E-06
  3643.51    0.2497E-02    0.2496E-02    0.2833E-06
  3645.83    0.2811E-02    0.2810E-02    0.3189E-06
  3648.14    0.3186E-02    0.3186E-02    0.3615E-06
  3650.46    0.3640E-02    0.3640E-02    0.4130E-06
  3652.77    0.4194E-02    0.4194E-02    0.4759E-06
  3655.09    0.4879E-02    0.4879E-02    0.5537E-06
  3657.40    0.5737E-02    0.5736E-02    0.6509E-06
  3659.71    0.6823E-02    0.6822E-02    0.7742E-06
  3662.03    0.8218E-02    0.8217E-02    0.9325E-06
  3664.34    0.1003E-01    0.1003E-01    0.1138E-05
  3666.66    0.1241E-01    0.1241E-01    0.1408E-05
  3668.97    0.1552E-01    0.1552E-01    0.1761E-05
  3671.28    0.1954E-01    0.1953E-01    0.2217E-05
  3673.60    0.2446E-01    0.2446E-01    0.2775E-05
  3675.91    0.2983E-01    0.2983E-01    0.3385E-05
  3678.23    0.3434E-01    0.3434E-01    0.3897E-05
  3680.54    0.3614E-01    0.3613E-01    0.4100E-05
  3682.85    0.3427E-01    0.3426E-01    0.3888E-05
  3685.17    0.2972E-01    0.2972E-01    0.3373E-05
  3687.48    0.2436E-01    0.2436E-01    0.2764E-05
  3689.80    0.1946E-01    0.1946E-01    0.2208E-05
  3692.11    0.1548E-01    0.1547E-01    0.1756E-05
  3694.42    0.1239E-01    0.1239E-01    0.1406E-05
  3696.74    0.1003E-01    0.1003E-01    0.1139E-05
  3699.05    0.8240E-02    0.8239E-02    0.9350E-06
  3701.37    0.6861E-02    0.6860E-02    0.7785E-06
  3703.68    0.5789E-02    0.5789E-02    0.6569E-06
  3706.00    0.4946E-02    0.4945E-02    0.5612E-06
  3708.31    0.4274E-02    0.4273E-02    0.4849E-06
  3710.62    0.3732E-02    0.3732E-02    0.4235E-06
  3712.94    0.3292E-02    0.3291E-02    0.3735E-06
  3715.25    0.2930E-02    0.2929E-02    0.3324E-06
  3717.57    0.2630E-02    0.2630E-02    0.2984E-06
  3719.88    0.2380E-02    0.2380E-02    0.2701E-06
  3722.19    0.2172E-02    0.2171E-02    0.2464E-06
  3724.51    0.1996E-02    0.1996E-02    0.2265E-06
  3726.82    0.1849E-02    0.1849E-02    0.2098E-06
  3729.14    0.1726E-02    0.1726E-02    0.1958E-06
  3731.45    0.1623E-02    0.1623E-02    0.1841E-06
  3733.76    0.1539E-02    0.1538E-02    0.1746E-06
  3736.08    0.1470E-02    0.1470E-02    0.1668E-06
  3738.39    0.1418E-02    0.1417E-02    0.1608E-06
  3740.71    0.1379E-02    0.1379E-02    0.1564E-06
  3743.02    0.1354E-02    0.1354E-02    0.1536E-06
  3745.34    0.1344E-02    0.1344E-02    0.1525E-06
  3747.65    0.1349E-02    0.1349E-02    0.1530E-06
  3749.96    0.1371E-02    0.1371E-02    0.1555E-06
  3752.28    0.1411E-02    0.1411E-02    0.1600E-06
  3754.59    0.1473E-02    0.1473E-02    0.1671E-06
  3756.91    0.1562E-02    0.1562E-02    0.1771E-06
  3759.22    0.1684E-02    0.1684E-02    0.1909E-06
  3761.53    0.1848E-02    0.1847E-02    0.2095E-06
  3763.85    0.2066E-02    0.2066E-02    0.2342E-06
  3766.16    0.2357E-02    0.2357E-02    0.2672E-06
  3768.48    0.2745E-02    0.2744E-02    0.3112E-06
  3770.79    0.3262E-02    0.3262E-02    0.3698E-06
  3773.10    0.3950E-02    0.3950E-02    0.4478E-06
  3775.42    0.4847E-02    0.4846E-02    0.5494E-06
  3777.73    0.5960E-02    0.5959E-02    0.6756E-06
  3780.05    0.7193E-02    0.7192E-02    0.8153E-06
  3782.36    0.8260E-02    0.8260E-02    0.9363E-06
  3784.67    0.8730E-02    0.8729E-02    0.9896E-06
  3786.99    0.8348E-02    0.8347E-02    0.9463E-06
  3789.30    0.7310E-02    0.7310E-02    0.8286E-06
  3791.62    0.6049E-02    0.6048E-02    0.6857E-06
  3793.93    0.4880E-02    0.4879E-02    0.5531E-06
  3796.25    0.3920E-02    0.3920E-02    0.4444E-06
  3798.56    0.3173E-02    0.3173E-02    0.3597E-06
  3800.87    0.2601E-02    0.2601E-02    0.2948E-06
  3803.19    0.2163E-02    0.2163E-02    0.2452E-06
  3805.50    0.1824E-02    0.1824E-02    0.2068E-06
  3807.82    0.1560E-02    0.1559E-02    0.1768E-06
  3810.13    0.1350E-02    0.1350E-02    0.1530E-06
  3812.44    0.1181E-02    0.1181E-02    0.1339E-06
  3814.76    0.1044E-02    0.1043E-02    0.1183E-06
  3817.07    0.9302E-03    0.9301E-03    0.1055E-06
  3819.39    0.8358E-03    0.8357E-03    0.9476E-07
  3821.70    0.7561E-03    0.7561E-03    0.8573E-07
  3824.01    0.6884E-03    0.6883E-03    0.7805E-07
  3826.33    0.6302E-03    0.6302E-03    0.7146E-07
  3828.64    0.5799E-03    0.5799E-03    0.6576E-07
  3830.96    0.5360E-03    0.5360E-03    0.6078E-07
  3833.27    0.4975E-03    0.4975E-03    0.5642E-07
  3835.58    0.4635E-03    0.4635E-03    0.5256E-07
  3837.90    0.4333E-03    0.4332E-03    0.4913E-07
  3840.21    0.4063E-03    0.4062E-03    0.4607E-07
  3842.53    0.3820E-03    0.3820E-03    0.4332E-07
  3844.84    0.3602E-03    0.3601E-03    0.4085E-07
  3847.16    0.3404E-03    0.3403E-03    0.3860E-07
